SPECTRUM DATA FILE
SpectrumCount:	1
PixelCount:	3648
UserName:	ToughBook User
SampleName:	
LightSource:	
Comments:	
DeviceName:	Qwave
DeviceManufacturer:	Broadcom
DeviceSerialNo:	11311

Name:	last spectrum
Date:	2024-05-02T15:23:11.2231290+02:00
ExposureTime:	0.02
TemporalAvg:	1
IntensityUnit:	normalizedCounts
CCDLoadLevel:	0.06978513
Temperature:	29.98056
DiagramColor:	200
ProcessingSteps:	335

Wavelength [nm]	Intensity1
334.421	13.45937
334.5891	15.90901
334.7573	19.36509
334.9254	21.31553
335.0935	21.79115
335.2616	17.81664
335.4297	14.63789
335.5978	17.13987
335.7659	19.99211
335.934	13.43654
336.1021	15.91489
336.2701	16.47596
336.4382	12.69646
336.6063	18.97078
336.7744	21.03196
336.9424	16.89813
337.1105	13.62883
337.2785	13.92726
337.4466	15.12436
337.6146	13.90676
337.7827	17.33682
337.9507	20.29703
338.1187	16.79829
338.2867	16.5283
338.4548	19.46539
338.6228	16.9629
338.7908	18.35888
338.9588	23.21929
339.1268	18.89302
339.2948	14.55688
339.4628	14.7791
339.6308	15.73068
339.7988	20.68676
339.9667	22.84848
340.1347	14.75813
340.3027	18.51499
340.4707	16.72882
340.6386	20.6184
340.8066	14.82215
340.9745	16.80773
341.1425	18.04737
341.3104	13.81821
341.4784	14.64407
341.6463	20.56959
341.8142	18.62855
341.9821	18.19338
342.1501	21.60353
342.318	20.75874
342.4859	16.56463
342.6538	15.98965
342.8217	16.63784
342.9896	23.86373
343.1575	20.48727
343.3254	19.93771
343.4933	17.79104
343.6612	21.603
343.829	21.8672
343.9969	14.5865
344.1648	18.36604
344.3326	22.9173
344.5005	21.2802
344.6683	17.60353
344.8362	20.87864
345.004	19.7383
345.1719	18.18824
345.3397	22.02192
345.5075	19.27857
345.6754	20.96513
345.8432	20.07291
346.011	17.09865
346.1788	16.00678
346.3466	17.6654
346.5144	20.01627
346.6822	25.10869
346.85	28.66464
347.0178	22.64017
347.1856	21.26526
347.3534	20.7095
347.5211	21.53491
347.6889	20.06708
347.8567	19.32104
348.0244	20.13015
348.1922	20.52462
348.3599	20.79171
348.5277	23.99292
348.6954	23.24977
348.8632	21.38472
349.0309	22.75724
349.1986	24.61386
349.3663	17.5335
349.5341	23.11801
349.7018	23.06555
349.8695	20.85151
350.0372	21.76613
350.2049	22.1606
350.3726	24.66818
350.5403	23.66471
350.7079	22.53439
350.8756	24.61276
351.0433	24.22272
351.211	26.3153
351.3786	22.91678
351.5463	26.19378
351.714	26.85253
351.8816	24.74504
352.0493	23.04351
352.2169	19.97142
352.3846	22.54211
352.5522	20.18062
352.7198	19.53722
352.8875	25.2424
353.0551	28.08499
353.2227	25.12893
353.3903	27.69691
353.5579	29.27627
353.7255	22.1039
353.8931	27.61
354.0607	25.65302
354.2283	19.14276
354.3958	26.01966
354.5634	25.69874
354.731	25.46739
354.8986	27.18793
355.0661	28.7999
355.2337	27.21748
355.4012	26.44037
355.5688	23.01628
355.7363	26.74345
355.9039	29.34805
356.0714	20.76916
356.239	22.8108
356.4065	27.39606
356.574	22.3955
356.7415	22.98155
356.909	20.37339
357.0765	24.64123
357.244	26.68313
357.4115	22.99788
357.579	22.10561
357.7465	25.86586
357.914	24.3838
358.0815	24.44075
358.249	21.32648
358.4164	19.87359
358.5839	16.07821
358.7513	20.77192
358.9188	23.49817
359.0862	24.80181
359.2537	25.20238
359.4211	27.17929
359.5886	32.08579
359.756	31.23042
359.9234	29.09044
360.0909	27.38865
360.2583	24.38222
360.4257	31.79046
360.5931	27.24053
360.7605	22.73386
360.9279	26.20393
361.0953	26.59974
361.2627	27.43695
361.4301	22.73081
361.5974	24.33366
361.7648	26.17861
361.9322	25.09137
362.0995	26.1505
362.2669	31.68137
362.4343	28.61691
362.6016	34.41211
362.769	37.19793
362.9363	32.1938
363.1036	23.22794
363.271	26.8774
363.4383	31.26626
363.6056	34.28818
363.7729	35.39264
363.9402	33.26087
364.1075	33.38915
364.2748	28.47777
364.4421	31.08977
364.6094	30.32338
364.7767	28.39897
364.944	33.14716
365.1113	34.95009
365.2786	36.10265
365.4458	30.18556
365.6131	39.26801
365.7803	39.6566
365.9476	39.06917
366.1148	37.86055
366.2821	40.81836
366.4493	34.86975
366.6166	41.73301
366.7838	37.60976
366.951	38.44929
367.1182	36.53728
367.2855	37.64852
367.4527	38.72652
367.6199	39.38986
367.7871	40.63285
367.9543	34.67691
368.1215	32.65856
368.2886	34.94375
368.4558	39.02761
368.623	39.41186
368.7902	34.61788
368.9573	36.98335
369.1245	38.17279
369.2917	36.01133
369.4588	37.04082
369.6259	41.67034
369.7931	43.14347
369.9602	43.8648
370.1274	40.07325
370.2945	36.39186
370.4616	38.57022
370.6287	33.25592
370.7958	33.36614
370.963	39.36273
371.1301	37.15546
371.2971	44.44736
371.4643	43.16173
371.6313	42.37167
371.7984	40.53825
371.9655	34.36463
372.1326	29.72414
372.2997	38.62652
372.4667	43.86905
372.6338	38.8232
372.8008	39.07835
372.9679	43.7354
373.1349	40.93511
373.3019	31.48557
373.469	23.78657
373.636	26.75193
373.803	34.16494
373.9701	38.56385
374.1371	41.60651
374.3041	41.22438
374.4711	36.66812
374.6381	33.73817
374.8051	30.89157
374.9721	30.91403
375.1391	37.05658
375.3061	44.2794
375.473	50.98227
375.64	42.4136
375.8069	40.87758
375.9739	42.59952
376.1409	44.41045
376.3078	42.54878
376.4748	40.95732
376.6417	40.64358
376.8087	45.66832
376.9756	44.22332
377.1425	49.98726
377.3094	48.67447
377.4763	52.66956
377.6432	54.60676
377.8102	55.39871
377.9771	53.57539
378.144	53.44987
378.3109	53.84314
378.4777	52.96051
378.6446	49.73062
378.8115	44.84151
378.9784	46.72116
379.1452	50.26564
379.3121	46.12418
379.4789	43.90348
379.6458	40.71146
379.8127	43.79424
379.9795	44.65799
380.1463	48.23858
380.3131	54.91734
380.48	53.50277
380.6468	52.3832
380.8136	49.39833
380.9804	52.86507
381.1472	52.97634
381.314	49.65952
381.4808	47.62031
381.6476	46.37909
381.8144	44.34002
381.9812	41.42669
382.148	42.70941
382.3147	38.57286
382.4815	36.88586
382.6483	34.39912
382.815	34.95507
382.9818	33.14383
383.1485	30.13426
383.3153	35.20064
383.482	35.79577
383.6487	32.70883
383.8155	35.26949
383.9822	40.48167
384.1489	41.82713
384.3156	49.59224
384.4823	55.28214
384.649	56.76999
384.8157	51.06402
384.9824	50.38802
385.1491	55.56896
385.3158	52.36006
385.4825	53.24718
385.6491	49.76399
385.8158	43.42408
385.9825	47.30192
386.1491	55.67611
386.3157	48.03503
386.4824	56.24725
386.649	47.97167
386.8157	46.27595
386.9823	46.4233
387.1489	50.14203
387.3156	47.89906
387.4821	49.39083
387.6488	55.02873
387.8154	52.39603
387.982	49.61349
388.1486	49.12842
388.3152	51.35283
388.4818	48.03718
388.6483	44.19831
388.8149	47.17202
388.9815	54.48033
389.148	56.78979
389.3146	53.58909
389.4811	59.84454
389.6477	58.36298
389.8142	56.03093
389.9808	58.69263
390.1473	59.98058
390.3138	58.69426
390.4804	51.44014
390.6469	57.54424
390.8134	60.19518
390.9799	66.57839
391.1464	68.68571
391.3129	68.98015
391.4794	72.05595
391.6459	67.36133
391.8124	64.88431
391.9789	60.67537
392.1453	56.90517
392.3118	58.71952
392.4782	60.44482
392.6447	54.32735
392.8112	48.21957
392.9776	34.49047
393.144	36.554
393.3105	31.87835
393.4769	26.79678
393.6433	31.40973
393.8098	43.7356
393.9762	51.84099
394.1426	52.58436
394.309	52.44944
394.4754	57.12522
394.6418	60.12357
394.8082	66.30145
394.9746	74.35554
395.141	71.09754
395.3073	68.73341
395.4737	75.19938
395.64	72.93831
395.8064	75.99667
395.9728	72.17738
396.1391	61.11063
396.3055	54.01473
396.4718	48.75816
396.6381	40.63174
396.8045	42.01012
396.9708	34.73103
397.1371	38.76585
397.3034	51.87408
397.4697	66.65295
397.636	75.5126
397.8023	83.6256
397.9686	85.71268
398.1349	87.81066
398.3012	90.91403
398.4675	87.04336
398.6337	85.16331
398.8	89.70541
398.9662	92.30026
399.1325	90.93476
399.2988	93.83186
399.465	87.89684
399.6313	90.02476
399.7975	94.79729
399.9637	92.29494
400.1299	97.87534
400.2961	104.9747
400.4624	97.98062
400.6286	93.13467
400.7948	96.04563
400.961	94.67766
401.1272	98.83634
401.2934	106.6859
401.4595	109.8844
401.6257	100.0778
401.7919	100.3348
401.9581	103.9453
402.1242	105.0101
402.2904	110.6118
402.4565	114.9264
402.6227	103.4003
402.7888	104.7302
402.955	105.5341
403.1211	94.61488
403.2872	94.1713
403.4533	101.1703
403.6194	107.2602
403.7856	114.5111
403.9517	121.0521
404.1177	113.8524
404.2838	108.9501
404.4499	100.8901
404.616	92.14655
404.7821	93.56011
404.9482	105.4735
405.1142	114.1361
405.2803	108.7806
405.4464	105.2993
405.6124	109.3156
405.7784	108.8912
405.9445	105.2162
406.1105	104.3354
406.2766	100.4072
406.4426	103.2106
406.6086	103.0873
406.7746	106.482
406.9406	110.8407
407.1066	107.5928
407.2726	107.2253
407.4386	110.8573
407.6046	108.6049
407.7706	113.2246
407.9366	110.3628
408.1025	114.9099
408.2685	120.557
408.4344	125.6358
408.6004	122.1293
408.7664	122.5873
408.9323	132.6538
409.0983	135.6557
409.2642	126.1856
409.4301	123.5341
409.596	119.606
409.762	117.8802
409.9279	110.0695
410.0938	99.71003
410.2597	103.3792
410.4256	105.2654
410.5915	114.7985
410.7574	122.6818
410.9232	128.2244
411.0891	128.9202
411.255	135.541
411.4209	132.156
411.5867	133.7929
411.7526	134.4275
411.9184	132.3468
412.0843	131.1275
412.2501	132.2947
412.4159	134.089
412.5818	127.643
412.7476	123.732
412.9134	127.0457
413.0792	120.9937
413.245	119.7649
413.4108	123.1471
413.5766	129.4493
413.7424	141.9263
413.9082	140.225
414.074	143.1446
414.2397	128.4793
414.4055	129.1314
414.5713	126.5046
414.737	131.5343
414.9028	133.8193
415.0685	136.1361
415.2343	134.881
415.4	130.788
415.5658	124.5717
415.7315	132.4901
415.8972	142.4618
416.0629	142.1595
416.2286	148.5513
416.3943	143.4049
416.56	146.0809
416.7257	137.6469
416.8914	138.1988
417.0571	134.8361
417.2228	128.7128
417.3884	128.2491
417.5541	128.7516
417.7198	129.5489
417.8854	133.5584
418.0511	131.5385
418.2167	131.9357
418.3824	137.7485
418.548	134.0786
418.7136	138.0988
418.8792	134.0897
419.0449	137.9175
419.2105	144.8207
419.3761	145.5134
419.5417	151.2442
419.7073	140.0654
419.8729	127.403
420.0385	133.8482
420.204	139.7912
420.3696	147.7142
420.5352	153.1875
420.7007	151.4311
420.8663	151.8832
421.0319	157.1567
421.1974	157.6035
421.3629	154.0104
421.5285	147.7231
421.694	147.276
421.8595	147.2497
422.0251	155.465
422.1906	146.8261
422.3561	150.4986
422.5216	133.9516
422.6871	126.4466
422.8526	132.8151
423.0181	146.5871
423.1835	155.1341
423.349	158.8744
423.5145	149.4425
423.68	148.6532
423.8454	150.2626
424.0109	154.2752
424.1763	157.0779
424.3418	160.133
424.5072	156.3413
424.6726	155.0303
424.838	150.37
425.0035	141.626
425.1689	148.5241
425.3343	148.2018
425.4997	153.264
425.6651	152.7919
425.8305	154.1618
425.9959	146.0275
426.1613	147.4664
426.3267	159.3721
426.492	167.2912
426.6574	166.4837
426.8228	157.2569
426.9881	150.7156
427.1534	136.263
427.3188	130.8879
427.4841	135.2585
427.6495	151.8494
427.8148	157.8592
427.9801	161.0816
428.1454	152.6674
428.3107	152.307
428.476	152.1541
428.6414	152.685
428.8066	146.6211
428.9719	142.1868
429.1372	142.7967
429.3025	145.9056
429.4678	143.7758
429.633	143.6323
429.7983	132.1803
429.9636	120.9858
430.1288	116.004
430.294	116.5905
430.4593	119.1389
430.6245	120.219
430.7897	115.7547
430.955	113.8743
431.1202	116.0909
431.2854	129.0163
431.4506	149.2156
431.6158	168.1572
431.781	183.3424
431.9462	189.0611
432.1114	181.6793
432.2766	163.0943
432.4417	151.4064
432.6069	146.5352
432.772	153.6243
432.9372	168.0023
433.1024	178.9107
433.2675	180.7434
433.4326	185.8804
433.5977	179.0658
433.7629	160.5242
433.928	144.7512
434.0931	139.3101
434.2582	143.6529
434.4233	157.9767
434.5884	168.2827
434.7535	179.6569
434.9186	184.7696
435.0837	180.6725
435.2488	178.6936
435.4138	176.8117
435.5789	186.3078
435.744	189.4727
435.909	188.9377
436.0741	184.7354
436.2391	195.1577
436.4042	200.5954
436.5692	202.3946
436.7342	198.7624
436.8992	195.3103
437.0643	190.5849
437.2293	191.2601
437.3943	184.2004
437.5593	182.1649
437.7243	181.9259
437.8893	188.9455
438.0542	188.2509
438.2192	173.2894
438.3842	163.4277
438.5491	158.5237
438.7141	170.2359
438.8791	182.0523
439.044	189.008
439.209	190.1867
439.3739	184.8318
439.5388	191.6971
439.7037	194.8721
439.8687	194.401
440.0336	188.9288
440.1985	184.663
440.3634	178.6937
440.5283	180.2072
440.6932	185.518
440.8581	197.0381
441.0229	201.7182
441.1878	207.5064
441.3527	211.9318
441.5175	199.7866
441.6824	197.3605
441.8472	207.6573
442.0121	220.3985
442.1769	222.0732
442.3418	217.0377
442.5066	207.3399
442.6714	207.9223
442.8362	211.3207
443.001	215.6281
443.1659	211.9117
443.3307	206.3043
443.4955	197.6644
443.6602	208.347
443.825	220.3695
443.9898	226.8404
444.1546	218.992
444.3193	210.9536
444.4841	220.1868
444.6488	227.4481
444.8136	230.4142
444.9783	226.0424
445.1431	223.6553
445.3078	214.1162
445.4725	209.0326
445.6372	207.7448
445.802	209.9193
445.9667	201.9947
446.1314	204.1787
446.2961	215.0455
446.4608	218.812
446.6255	215.851
446.7901	218.3014
446.9548	223.8192
447.1195	226.6921
447.2841	230.7329
447.4488	241.0834
447.6134	242.0568
447.7781	242.4882
447.9427	235.2106
448.1074	228.5385
448.272	226.0207
448.4366	225.4621
448.6012	236.225
448.7658	244.0699
448.9305	232.2673
449.095	236.5516
449.2596	242.5993
449.4242	240.146
449.5888	237.0557
449.7534	238.2337
449.9179	244.5538
450.0825	251.2347
450.2471	246.3734
450.4116	254.193
450.5762	266.362
450.7407	270.3188
450.9052	262.3339
451.0698	265.7142
451.2343	255.2285
451.3988	256.9003
451.5633	244.0287
451.7278	243.1482
451.8923	258.0048
452.0568	250.55
452.2213	252.0591
452.3858	252.0499
452.5503	241.0741
452.7148	234.4914
452.8792	232.7024
453.0437	229.1384
453.2081	237.2256
453.3726	230.6008
453.537	230.6828
453.7015	252.396
453.8659	259.0471
454.0303	259.667
454.1947	254.4623
454.3592	262.0215
454.5236	253.3347
454.688	244.2872
454.8524	243.9159
455.0168	237.249
455.1811	234.3954
455.3455	240.5447
455.5099	251.807
455.6743	251.5028
455.8386	256.0537
456.003	267.4134
456.1673	267.5391
456.3317	260.9396
456.496	254.0413
456.6603	252.1556
456.8246	264.3761
456.989	266.0501
457.1533	265.53
457.3176	254.4245
457.4819	265.695
457.6462	272.8086
457.8105	260.1008
457.9748	261.9839
458.1391	246.9421
458.3033	253.1729
458.4676	244.6927
458.6319	247.9759
458.7961	252.3333
458.9604	260.9251
459.1246	265.1939
459.2888	258.1073
459.4531	254.6216
459.6173	253.8423
459.7815	247.5114
459.9457	241.0381
460.11	250.556
460.2741	258.4273
460.4384	254.306
460.6025	259.1289
460.7667	261.7755
460.9309	269.5608
461.0951	268.2351
461.2592	261.7435
461.4234	256.3839
461.5876	253.5475
461.7517	259.0352
461.9159	264.5089
462.08	271.5717
462.2441	268.0956
462.4082	270.5299
462.5724	274.0194
462.7365	274.4591
462.9006	270.7493
463.0647	269.3082
463.2288	276.5292
463.3929	270.002
463.557	269.8849
463.721	269.9772
463.8851	264.8521
464.0492	265.646
464.2132	268.5919
464.3773	263.2971
464.5414	261.9326
464.7054	254.0226
464.8694	257.1916
465.0334	262.6904
465.1975	265.1414
465.3615	271.7168
465.5255	270.9275
465.6895	269.5775
465.8535	275.9235
466.0175	281.4352
466.1815	281.7574
466.3455	266.3811
466.5095	265.4235
466.6734	257.3278
466.8374	252.3267
467.0014	253.0847
467.1653	267.9538
467.3293	271.1495
467.4932	275.8841
467.6571	283.1504
467.8211	279.3438
467.985	269.55
468.1489	272.3532
468.3128	285.7327
468.4767	281.7776
468.6406	284.6688
468.8045	287.645
468.9684	275.9468
469.1323	271.5517
469.2962	282.5945
469.46	291.2273
469.6239	288.4425
469.7878	285.9223
469.9516	280.5074
470.1154	268.2094
470.2793	263.5775
470.4431	269.3461
470.607	266.5583
470.7708	265.3405
470.9346	274.833
471.0984	284.2065
471.2622	277.2391
471.426	272.0304
471.5898	284.7207
471.7536	290.0364
471.9174	293.4006
472.0811	289.2419
472.2449	296.8031
472.4087	293.127
472.5724	291.3258
472.7362	278.2465
472.8999	277.8311
473.0637	275.4923
473.2274	276.617
473.3911	285.0805
473.5548	280.0695
473.7185	277.7388
473.8822	279.671
474.0459	278.7372
474.2096	284.2302
474.3733	284.1213
474.537	288.4278
474.7007	289.6844
474.8643	286.8108
475.028	288.1042
475.1917	290.7503
475.3553	282.0861
475.519	284.9529
475.6826	279.2003
475.8463	281.6048
476.0099	295.4889
476.1735	288.175
476.3371	275.5628
476.5007	265.4492
476.6643	270.8586
476.8279	279.132
476.9915	283.9217
477.1551	280.2802
477.3187	279.0785
477.4823	286.4124
477.6458	299.548
477.8094	299.5802
477.9729	298.0586
478.1365	295.0489
478.3	282.5847
478.4636	278.7843
478.6271	278.8157
478.7906	275.3062
478.9541	279.1461
479.1176	288.4371
479.2812	290.1651
479.4447	300.0363
479.6082	302.0251
479.7716	300.6583
479.9351	294.4381
480.0986	289.0677
480.2621	288.6854
480.4255	296.5588
480.589	292.3539
480.7524	293.7984
480.9159	288.0758
481.0793	292.8708
481.2428	289.844
481.4062	289.8436
481.5696	295.2992
481.733	294.708
481.8964	295.6785
482.0598	297.9923
482.2232	291.5983
482.3866	290.7859
482.55	280.4295
482.7134	284.184
482.8768	297.4631
483.0401	300.5689
483.2035	290.4668
483.3668	288.416
483.5302	299.4723
483.6935	295.2877
483.8568	292.9701
484.0202	291.6036
484.1835	284.4427
484.3468	282.7928
484.5101	291.123
484.6734	291.0007
484.8367	297.4457
485	294.2132
485.1633	288.3494
485.3266	280.966
485.4899	277.8922
485.6531	269.6775
485.8164	256.6749
485.9796	241.4493
486.1429	216
486.3061	220.6637
486.4694	250.3624
486.6326	267.3818
486.7958	270.6041
486.959	265.0847
487.1223	263.9872
487.2855	265.8452
487.4486	268.8367
487.6118	278.7178
487.775	280.6938
487.9382	284.6624
488.1014	296.6909
488.2646	298.3007
488.4277	285.9839
488.5909	273.9303
488.754	279.272
488.9171	272.1888
489.0803	264.0628
489.2434	277.9154
489.4066	286.1868
489.5697	301.0718
489.7328	310.8865
489.8959	314.4444
490.059	310.4434
490.2221	296.8048
490.3852	296.4996
490.5482	305.2537
490.7113	305.5354
490.8744	301.6821
491.0374	285.6146
491.2005	286.5563
491.3636	291.9625
491.5266	297.9261
491.6896	293.4875
491.8527	282.6869
492.0157	262.5977
492.1787	261.1682
492.3417	267.8468
492.5047	284.9649
492.6677	286.6718
492.8307	297.9168
492.9937	309.3405
493.1567	303.3559
493.3196	295.0208
493.4826	292.9719
493.6456	280.5472
493.8085	279.6368
493.9715	284.0369
494.1344	290.7448
494.2974	293.0622
494.4603	301.5367
494.6232	306.6018
494.7861	297.2481
494.949	300.8528
495.1119	310.2801
495.2748	305.0529
495.4377	298.429
495.6006	287.004
495.7635	279.0194
495.9264	280.4414
496.0892	299.0794
496.2521	304.9947
496.4149	305.6987
496.5778	300.7236
496.7407	293.7823
496.9035	296.987
497.0663	293.7303
497.2291	297.3153
497.3919	307.2702
497.5547	307.5213
497.7176	304.4072
497.8804	296.4872
498.0432	288.4094
498.2059	280.1661
498.3687	280.2729
498.5315	278.3658
498.6942	293.2374
498.857	302.7934
499.0198	309.1174
499.1825	312.5318
499.3452	307.1316
499.508	300.5751
499.6707	304.1004
499.8334	302.3851
499.9962	297.0484
500.1589	291.1882
500.3216	293.7671
500.4843	282.2811
500.6469	274.6981
500.8096	283.212
500.9723	288.3416
501.135	294.9366
501.2976	290.1721
501.4603	287.7974
501.623	281.3441
501.7856	282.3163
501.9482	285.3791
502.1109	296.203
502.2735	292.0232
502.4361	302.3318
502.5987	296.8892
502.7614	297.3119
502.924	301.4943
503.0865	303.6598
503.2491	312.3838
503.4117	307.7852
503.5743	299.5031
503.7368	299.847
503.8994	287.4362
504.062	274.6252
504.2245	280.4608
504.3871	290.1331
504.5496	299.4362
504.7121	305.6019
504.8746	302.202
505.0372	301.4737
505.1997	299.3826
505.3622	315.2845
505.5247	318.26
505.6872	319.7662
505.8497	315.3801
506.0121	316.3835
506.1746	321.8594
506.3371	315.4166
506.4995	313.3397
506.662	308.8106
506.8244	303.835
506.9869	314.3039
507.1493	312.2928
507.3117	309.6835
507.4742	305.7657
507.6366	298.9689
507.799	303.9028
507.9614	296.799
508.1238	296.9974
508.2862	296.8234
508.4485	300.3511
508.6109	308.0864
508.7733	320.3069
508.9357	315.9757
509.098	312.5017
509.2604	314.5006
509.4227	321.1662
509.5851	314.6968
509.7474	304.6067
509.9097	300.7719
510.072	297.5753
510.2343	306.9208
510.3966	311.4248
510.5589	302.994
510.7212	301.9796
510.8835	302.1475
511.0458	294.2666
511.2081	303.7002
511.3703	317.9712
511.5326	319.1612
511.6949	311.4721
511.8571	307.4355
512.0193	313.4425
512.1816	303.4417
512.3438	293.6927
512.506	293.3011
512.6682	291.6508
512.8304	293.4474
512.9926	299.216
513.1548	290.7946
513.317	297.626
513.4792	293.7981
513.6414	293.8872
513.8035	290.1725
513.9657	284.1913
514.1279	284.3829
514.29	286.6762
514.4521	286.7728
514.6143	293.6316
514.7764	289.2084
514.9385	288.4331
515.1006	296.5726
515.2628	292.5557
515.4249	291.3802
515.587	297.2296
515.7491	297.0128
515.9111	295.8487
516.0732	295.9503
516.2353	299.6055
516.3973	286.2227
516.5594	258.1127
516.7214	245.4559
516.8835	240.4422
517.0455	242.2047
517.2076	238.6859
517.3696	240.9037
517.5316	257.5701
517.6937	280.7893
517.8557	288.5095
518.0176	287.8784
518.1796	272.2609
518.3416	249.0924
518.5036	246.1075
518.6656	258.1767
518.8275	277.9713
518.9895	286.5656
519.1514	280.1382
519.3134	283.6125
519.4753	283.1168
519.6373	287.4126
519.7992	294.1646
519.9611	298.1429
520.123	302.4008
520.2849	296.3937
520.4468	301.1597
520.6087	280.3897
520.7706	273.9148
520.9325	280.0508
521.0944	294.8078
521.2562	301.9501
521.4181	297.6707
521.58	292.0257
521.7418	286.2036
521.9036	293.3499
522.0655	303.747
522.2273	306.8528
522.3891	306.8011
522.551	293.1032
522.7128	272.5688
522.8746	279.408
523.0363	293.6142
523.1981	299.9398
523.3599	300.1067
523.5217	303.734
523.6835	308.5605
523.8452	308.8079
524.007	311.1684
524.1687	311.0828
524.3304	306.5977
524.4922	319.3311
524.6539	310.2061
524.8157	313.9319
524.9774	312.6977
525.1391	307.3571
525.3008	305.9049
525.4625	302.2637
525.6241	316.9392
525.7858	310.6211
525.9475	304.3999
526.1092	296.9469
526.2709	292.2741
526.4325	273.6694
526.5942	263.7604
526.7558	259.6967
526.9174	264.916
527.079	275.0425
527.2407	277.1501
527.4023	289.693
527.5639	292.5476
527.7255	299.5791
527.8871	304.9525
528.0487	306.5485
528.2103	299.5044
528.3718	303.4091
528.5334	304.1781
528.695	312.2845
528.8565	324.9728
529.0181	328.3943
529.1796	327.4568
529.3412	328.683
529.5027	320.3359
529.6642	310.6753
529.8257	303.1497
529.9872	302.8816
530.1487	302.509
530.3102	308.8255
530.4717	312.0211
530.6332	311.7976
530.7947	313.1542
530.9562	319.0248
531.1176	320.1426
531.2791	326.1743
531.4405	315.9746
531.6019	320.4638
531.7634	315.0083
531.9248	309.8191
532.0862	311.6176
532.2477	311.1306
532.4091	295.6866
532.5704	286.906
532.7319	279.9156
532.8932	279.8361
533.0546	284.8751
533.216	301.2995
533.3774	315.4048
533.5388	307.6411
533.7001	306.2989
533.8615	301.4465
534.0228	296.3398
534.1841	292.2322
534.3455	295.7931
534.5068	305.4641
534.6681	298.4881
534.8293	300.8884
534.9907	293.7333
535.152	299.1828
535.3132	293.9719
535.4745	300.1819
535.6358	307.1583
535.7971	315.6697
535.9583	309.182
536.1196	307.2828
536.2808	298.9842
536.4421	288.6869
536.6033	290.3297
536.7645	285.0336
536.9258	285.4366
537.087	285.6603
537.2482	284.5299
537.4094	288.204
537.5706	302.8165
537.7318	299.7736
537.8929	306.018
538.0541	299.6139
538.2153	293.3954
538.3764	281.2766
538.5376	292.4918
538.6987	304.2686
538.8599	298.6473
539.021	296.2509
539.1821	293.5125
539.3432	285.6336
539.5043	283.9198
539.6655	284.4509
539.8265	277.8108
539.9876	283.6093
540.1487	291.0289
540.3098	290.8118
540.4708	278.7884
540.6319	274.5296
540.793	266.4285
540.954	281.9789
541.1151	276.0025
541.2761	279.6133
541.4371	284.2595
541.5981	284.1817
541.7592	291.2657
541.9202	289.75
542.0812	287.8513
542.2422	281.0396
542.4031	286.2537
542.5641	283.1486
542.7251	292.6393
542.886	289.2409
543.0471	288.7709
543.208	285.5775
543.369	279.9793
543.5298	279.3707
543.6908	284.9819
543.8517	291.9104
544.0126	297.649
544.1736	297.7881
544.3345	289.2877
544.4954	286.2859
544.6563	280.6205
544.8171	287.4441
544.978	295.2046
545.1389	300.2556
545.2997	296.7151
545.4606	283.4764
545.6215	279.8616
545.7823	285.9767
545.9432	297.7617
546.104	291.2953
546.2648	296.6557
546.4256	292.57
546.5864	279.3419
546.7473	286.4584
546.908	296.8764
547.0688	292.6956
547.2296	296.3987
547.3904	288.0672
547.5511	286.0661
547.7119	278.8618
547.8727	276.6725
548.0334	279.8875
548.1942	287.2326
548.3549	296.7676
548.5156	289.1401
548.6763	294.2423
548.837	298.0989
548.9977	292.896
549.1584	284.5448
549.3192	286.7835
549.4798	292.8884
549.6405	287.463
549.8011	290.7312
549.9619	295.0971
550.1225	291.7627
550.2831	294.5662
550.4438	295.7321
550.6044	292.6817
550.765	287.0075
550.9257	288.523
551.0863	292.1086
551.2469	280.7013
551.4075	281.332
551.5681	278.2726
551.7287	283.3534
551.8893	293.9253
552.0498	294.1692
552.2104	296.6285
552.371	290.6118
552.5315	284.3029
552.6921	287.084
552.8526	280.587
553.0131	282.5707
553.1736	286.0007
553.3342	292.4692
553.4947	294.2426
553.6552	278.8411
553.8157	286.7108
553.9762	285.9644
554.1367	294.0917
554.2971	294.1396
554.4576	287.9598
554.618	290.9666
554.7785	284.8621
554.939	292.4362
555.0994	288.713
555.2598	281.2403
555.4203	284.1089
555.5807	280.5093
555.7411	284.5388
555.9015	280.5819
556.0619	279.5184
556.2223	277.1342
556.3827	274.7821
556.5431	274.1776
556.7034	273.5396
556.8638	276.234
557.0242	272.3323
557.1845	274.3306
557.3448	278.718
557.5052	273.2145
557.6655	276.546
557.8259	275.7618
557.9861	273.5967
558.1465	272.0589
558.3068	280.514
558.467	271.8482
558.6274	263.4572
558.7877	255.0637
558.9479	250.6286
559.1082	260.5213
559.2684	259.7936
559.4287	268.8112
559.5889	265.9286
559.7491	262.3304
559.9094	263.3901
560.0696	257.3861
560.2299	254.9326
560.3901	257.4224
560.5502	265.0701
560.7104	272.7801
560.8707	278.7382
561.0308	271.8951
561.191	274.0726
561.3511	271.1525
561.5114	259.8593
561.6714	253.6079
561.8316	256.5206
561.9918	265.0804
562.1519	266.6573
562.312	261.0502
562.4722	249.4955
562.6323	255.6868
562.7924	268.1294
562.9525	272.947
563.1125	268.2894
563.2726	273.6447
563.4327	271.3132
563.5928	262.9568
563.7528	264.7562
563.9129	267.0474
564.0729	254.1693
564.233	261.7029
564.393	269.687
564.553	263.4385
564.7131	262.2137
564.873	263.1797
565.0331	259.9886
565.1931	260.9789
565.353	256.8424
565.5131	263.0264
565.673	258.2635
565.833	247.0704
565.9929	251.7928
566.1529	253.6384
566.3129	255.0393
566.4728	250.6158
566.6328	255.4384
566.7927	263.4623
566.9526	256.9925
567.1125	257.1977
567.2724	249.9778
567.4323	257.0072
567.5922	261.034
567.7521	264.9018
567.9119	262.9183
568.0718	261.7657
568.2317	256.9713
568.3915	248.6618
568.5514	248.5776
568.7112	249.099
568.871	245.4464
569.0309	258.0042
569.1907	251.1856
569.3505	258.5067
569.5103	255.5267
569.6701	256.4941
569.8299	262.2115
569.9897	254.1945
570.1495	254.2885
570.3092	247.9447
570.469	247.3067
570.6287	247.8119
570.7885	248.9628
570.9482	247.2416
571.108	234.7562
571.2677	240.5442
571.4274	242.3894
571.5871	246.8652
571.7468	250.5033
571.9066	250.7907
572.0662	255.5615
572.2259	257.4454
572.3856	254.5185
572.5452	252.7412
572.7049	246.1976
572.8646	258.315
573.0242	257.5219
573.1838	255.6039
573.3435	254.6547
573.5031	255.3629
573.6627	253.1864
573.8223	251.3491
573.9819	258.872
574.1415	258.2007
574.3011	258.7097
574.4607	252.7844
574.6203	260.8656
574.7798	256.6112
574.9394	253.7615
575.099	250.1224
575.2585	249.6987
575.418	244.1802
575.5776	243.3136
575.7371	243.6752
575.8966	248.5334
576.0562	242.7529
576.2156	242.5546
576.3751	244.6609
576.5346	249.9556
576.6941	242.7512
576.8536	249.2632
577.0131	246.6343
577.1725	249.5493
577.332	248.9045
577.4914	249.3071
577.6508	240.7705
577.8103	241.7867
577.9697	245.3825
578.1291	244.1678
578.2885	246.1241
578.4479	230.5731
578.6073	237.2857
578.7667	240.6314
578.9261	245.1557
579.0854	242.4903
579.2448	245.8828
579.4042	238.3926
579.5635	234.6143
579.7229	243.0062
579.8822	243.1686
580.0416	240.3005
580.2009	242.0982
580.3602	242.9602
580.5195	244.2954
580.6788	233.508
580.8381	241.2685
580.9974	238.1142
581.1566	239.1151
581.3159	237.0047
581.4752	240.5667
581.6345	248.8267
581.7937	243.9693
581.9529	239.2515
582.1122	241.4368
582.2714	244.0655
582.4306	237.2772
582.5898	237.1099
582.749	239.6808
582.9082	239.4238
583.0674	234.5116
583.2266	234.3817
583.3857	237.7914
583.5449	234.2256
583.7041	229.3013
583.8633	230.0539
584.0224	242.1224
584.1815	239.7482
584.3407	238.8924
584.4998	235.1924
584.6589	232.0585
584.818	230.1044
584.9771	234.2823
585.1362	233.1372
585.2953	234.5121
585.4544	228.6862
585.6135	219.4103
585.7725	216.6328
585.9316	220.0874
586.0906	232.4451
586.2497	230.2454
586.4087	223.687
586.5677	229.3692
586.7267	234.3279
586.8858	231.4136
587.0448	231.2338
587.2038	228.0574
587.3628	229.5346
587.5218	224.3338
587.6807	222.8895
587.8397	224.001
587.9987	225.847
588.1577	227.3627
588.3166	220.5849
588.4755	216.8678
588.6345	216.2522
588.7934	210.7607
588.9523	203.4433
589.1112	200.2496
589.2701	201.8245
589.429	194.6469
589.5879	199.0995
589.7468	206.1868
589.9056	205.609
590.0645	207.9247
590.2234	206.1427
590.3822	215.2414
590.5411	216.8904
590.6999	213.875
590.8588	221.7434
591.0176	217.6113
591.1764	208.3861
591.3352	209.603
591.494	212.6894
591.6528	212.5409
591.8116	214.6353
591.9703	207.6407
592.1291	207.7742
592.2878	211.745
592.4467	214.4058
592.6053	210.314
592.7641	208.4599
592.9229	214.0852
593.0816	218.6925
593.2403	215.3877
593.399	217.1169
593.5577	214.4136
593.7164	213.203
593.8751	216.1487
594.0338	216.6158
594.1924	216.2609
594.3511	216.7696
594.5098	210.2349
594.6684	202.4269
594.8271	205.1812
594.9857	200.6814
595.1443	205.6062
595.303	212.6352
595.4615	212.7566
595.6202	212.6073
595.7787	213.5828
595.9374	215.1867
596.0959	217.6906
596.2545	212.5148
596.4131	208.6535
596.5717	221.0209
596.7302	218.0019
596.8887	216.3479
597.0473	215.4102
597.2058	214.1643
597.3644	207.2203
597.5229	207.0323
597.6814	210.3255
597.8399	214.7009
597.9984	214.0621
598.1569	212.7525
598.3154	204.021
598.4738	207.4464
598.6323	214.5167
598.7908	212.3144
598.9492	212.1234
599.1076	209.0837
599.2661	210.0216
599.4245	214.0399
599.5829	215.5154
599.7413	205.0381
599.8997	201.7489
600.0581	205.2248
600.2165	205.7737
600.3749	208.5588
600.5333	208.0578
600.6917	207.9607
600.85	204.4087
601.0084	205.2354
601.1667	208.029
601.325	211.2407
601.4833	208.1375
601.6417	204.553
601.8	208.1791
601.9583	207.8138
602.1166	207.6111
602.2749	207.522
602.4332	207.6272
602.5914	200.9749
602.7498	199.5093
602.908	206.1429
603.0662	211.3189
603.2245	210.964
603.3828	209.5322
603.541	215.6915
603.6992	215.9447
603.8574	203.856
604.0156	205.9722
604.1738	208.8642
604.332	207.1898
604.4902	198.7885
604.6484	202.2283
604.8065	204.3723
604.9647	208.669
605.1229	210.9375
605.281	211.5522
605.4391	212.7047
605.5973	206.6049
605.7554	200.11
605.9135	207.588
606.0717	212.5776
606.2297	212.1873
606.3878	205.5823
606.5459	203.4498
606.704	200.3912
606.8621	204.1427
607.0201	204.2973
607.1782	201.2051
607.3362	209.1113
607.4943	214.1212
607.6523	209.1068
607.8104	208.2739
607.9684	206.1143
608.1264	208.9639
608.2844	205.7406
608.4424	205.5256
608.6003	204.2205
608.7584	198.8309
608.9163	205.3542
609.0743	203.7807
609.2322	204.1074
609.3902	204.4062
609.5482	202.2673
609.7061	197.463
609.864	195.7178
610.0219	193.6828
610.1798	201.3214
610.3377	196.1943
610.4956	194.907
610.6535	195.3593
610.8114	196.2925
610.9693	195.7419
611.1271	195.5449
611.285	205.2267
611.4429	203.0568
611.6007	194.8649
611.7585	197.1338
611.9164	200.6115
612.0742	198.1471
612.232	198.0957
612.3898	197.0742
612.5476	191.9512
612.7054	191.5986
612.8632	196.4273
613.0209	191.5699
613.1787	195.0132
613.3365	193.6111
613.4942	194.9855
613.652	188.3004
613.8097	178.7948
613.9674	181.9234
614.1252	184.5927
614.2829	186.1334
614.4406	190.165
614.5983	195.4577
614.756	198.6811
614.9136	195.0598
615.0714	189.5298
615.229	187.0658
615.3867	191.7151
615.5443	190.5414
615.702	187.7695
615.8596	183.4054
616.0172	186.1567
616.1748	187.2439
616.3325	179.8052
616.4901	178.5907
616.6476	181.1182
616.8052	180.3117
616.9628	180.3189
617.1204	180.7366
617.278	186.5309
617.4355	184.0086
617.5931	185.3481
617.7506	185.9925
617.9081	188.997
618.0657	191.8826
618.2232	187.6506
618.3807	188.0527
618.5382	196.4584
618.6957	185.5582
618.8532	186.3572
619.0107	186.2012
619.1682	185.4413
619.3256	182.8019
619.4831	184.8769
619.6406	182.8105
619.798	190.0534
619.9554	188.221
620.1129	195.6175
620.2703	190.8925
620.4277	184.981
620.5851	185.1075
620.7425	184.4419
620.8998	176.2234
621.0573	182.4443
621.2146	182.9637
621.372	178.629
621.5294	173.229
621.6867	177.2999
621.8441	176.9045
622.0013	178.3235
622.1587	184.3427
622.316	179.9229
622.4733	182.5626
622.6306	178.2812
622.7879	179.6623
622.9452	182.589
623.1025	181.1743
623.2598	179.4162
623.4171	179.7947
623.5743	185.0049
623.7316	185.5718
623.8888	172.7573
624.046	174.7903
624.2032	174.5223
624.3605	180.782
624.5176	179.6474
624.6749	177.2325
624.8321	178.7114
624.9893	178.6801
625.1464	174.5032
625.3036	175.0919
625.4608	170.9788
625.6179	171.0462
625.7751	174.1415
625.9322	162.9138
626.0894	176.7134
626.2465	177.8814
626.4036	177.8128
626.5607	178.086
626.7178	180.2441
626.8749	175.0605
627.032	176.1025
627.189	177.9354
627.3461	177.6555
627.5032	167.5262
627.6602	171.5374
627.8173	169.4803
627.9743	160.9505
628.1313	164.8638
628.2884	167.3814
628.4454	170.987
628.6024	179.0032
628.7594	172.2173
628.9164	170.2692
629.0734	173.3033
629.2303	171.8997
629.3873	173.3703
629.5443	166.232
629.7012	174.2558
629.8582	168.8737
630.0151	167.811
630.172	170.2507
630.3289	167.8029
630.4858	167.8341
630.6428	169.259
630.7996	169.102
630.9565	175.5784
631.1134	174.6317
631.2703	166.9833
631.4272	169.0453
631.584	164.4091
631.7408	164.3587
631.8977	162.4828
632.0546	171.1706
632.2114	168.9331
632.3682	166.0906
632.525	170.757
632.6818	173.8592
632.8386	173.9958
632.9954	166.7166
633.1522	170.1293
633.3089	174.5595
633.4657	169.3221
633.6224	162.4575
633.7792	165.6162
633.9359	169.1353
634.0927	167.1058
634.2494	171.8401
634.4061	171.4369
634.5628	166.8222
634.7195	166.992
634.8762	172.1937
635.0329	173.1361
635.1895	164.9187
635.3462	165.9261
635.5029	167.8357
635.6595	167.7646
635.8162	162.4533
635.9728	162.0844
636.1295	163.7259
636.2861	164.2877
636.4427	164.4592
636.5992	168.9672
636.7559	175.0829
636.9124	169.7332
637.069	161.8973
637.2256	166.1585
637.3821	165.7787
637.5387	168.8024
637.6953	167.1395
637.8518	166.4798
638.0084	167.0569
638.1649	164.6065
638.3214	163.1702
638.4779	167.7447
638.6344	165.8276
638.7909	171.001
638.9474	166.8154
639.1038	164.951
639.2603	161.748
639.4167	160.4721
639.5732	162.3138
639.7297	166.3007
639.8861	164.8203
640.0425	156.6128
640.199	160.608
640.3553	159.8721
640.5118	163.7368
640.6682	163.1984
640.8245	160.4716
640.981	158.2217
641.1373	167.5274
641.2936	159.4145
641.45	158.151
641.6064	169.0704
641.7627	164.7336
641.9191	151.7398
642.0754	160.0886
642.2317	160.7643
642.388	153.0359
642.5443	153.6536
642.7006	161.0784
642.8569	157.0212
643.0131	150.1151
643.1694	159.6243
643.3257	164.4898
643.4819	165.1951
643.6382	155.2645
643.7944	159.5824
643.9506	157.3697
644.1069	156.6155
644.2631	160.0065
644.4193	157.2538
644.5754	162.591
644.7316	158.1921
644.8878	159.5216
645.044	157.4538
645.2002	155.17
645.3563	157.6167
645.5125	160.8999
645.6686	158.3094
645.8248	156.5873
645.9809	148.3804
646.137	149.9195
646.2931	152.8482
646.4492	151.9924
646.6053	150.8606
646.7614	151.1967
646.9174	157.856
647.0735	155.558
647.2296	149.6289
647.3856	149.5646
647.5417	144.7294
647.6977	152.7288
647.8537	153.8661
648.0098	147.9865
648.1658	150.1177
648.3218	150.8232
648.4777	154.9121
648.6337	149.8291
648.7897	148.6019
648.9457	144.2994
649.1016	149.0797
649.2576	143.1931
649.4135	144.2321
649.5695	143.3827
649.7254	137.7276
649.8813	143.9352
650.0372	147.7363
650.1932	142.2228
650.3491	144.2705
650.5049	153.4313
650.6608	152.7059
650.8167	144.5572
650.9725	144.4931
651.1284	150.5851
651.2842	148.9155
651.4401	144.0148
651.5959	143.3454
651.7518	144.2764
651.9076	148.4913
652.0634	149.2172
652.2192	142.7086
652.3749	143.8512
652.5308	141.9883
652.6865	141.8781
652.8423	136.9186
652.998	144.4453
653.1538	143.3976
653.3096	144.4481
653.4653	148.2939
653.621	147.2991
653.7767	147.6952
653.9324	148.0899
654.0881	145.3438
654.2438	145.841
654.3995	142.0544
654.5552	139.2236
654.7109	143.1029
654.8665	147.4072
655.0222	146.6186
655.1778	138.3468
655.3334	139.2229
655.4891	135.7636
655.6447	135.533
655.8003	137.1768
655.9559	134.5704
656.1115	124.2159
656.2671	118.8834
656.4227	118.8066
656.5782	119.4837
656.7338	127.3288
656.8893	131.6975
657.0449	138.4761
657.2004	137.9015
657.356	140.2488
657.5115	134.5505
657.667	136.0985
657.8225	145.9888
657.978	141.2269
658.1335	142.232
658.289	141.9734
658.4445	142.0765
658.5999	144.1065
658.7554	138.8871
658.9108	140.424
659.0663	135.4614
659.2217	140.4745
659.3771	134.8615
659.5325	134.7558
659.6879	142.1405
659.8433	140.0326
659.9987	137.8618
660.1541	133.1398
660.3095	136.4263
660.4648	140.3923
660.6202	144.4501
660.7756	142.3551
660.9309	141.2506
661.0862	136.7824
661.2416	141.5178
661.3969	141.6919
661.5522	140.812
661.7075	147.2098
661.8628	137.4871
662.0181	143.1184
662.1733	141.2031
662.3286	139.0576
662.4839	139.6968
662.6391	138.573
662.7944	134.6857
662.9496	138.8743
663.1048	145.9206
663.26	140.4342
663.4152	142.9294
663.5704	145.6013
663.7256	145.8463
663.8808	143.5704
664.036	146.3673
664.1912	138.1589
664.3463	133.3145
664.5015	132.938
664.6566	145.2705
664.8118	139.731
664.9669	140.115
665.122	141.1975
665.2771	140.4024
665.4322	141.1581
665.5873	142.7166
665.7424	143.6505
665.8975	139.2001
666.0526	140.1587
666.2076	137.2413
666.3627	137.0774
666.5177	142.9585
666.6727	143.3981
666.8278	142.0882
666.9828	141.3494
667.1378	141.6242
667.2928	139.3315
667.4478	143.6489
667.6028	142.13
667.7578	140.196
667.9127	138.1121
668.0677	141.9954
668.2226	136.9181
668.3776	140.198
668.5325	138.667
668.6874	137.6257
668.8423	132.1459
668.9973	136.1822
669.1522	137.2907
669.3071	135.5926
669.4619	133.7021
669.6168	134.1023
669.7717	134.9591
669.9265	138.7152
670.0814	131.4718
670.2362	137.6951
670.3911	137.4551
670.5459	137.3869
670.7007	131.7489
670.8555	128.4672
671.0103	132.2536
671.1651	136.0273
671.3199	135.1768
671.4747	137.0282
671.6295	133.5306
671.7842	128.9503
671.939	136.6194
672.0937	132.8657
672.2484	134.1522
672.4031	137.0519
672.5579	130.7993
672.7126	128.8417
672.8673	127.7482
673.022	130.9155
673.1767	132.6211
673.3314	131.8526
673.486	129.1814
673.6407	129.8847
673.7953	128.0994
673.95	135.4982
674.1046	131.5353
674.2592	129.5932
674.4138	130.8904
674.5684	136.1564
674.723	130.1384
674.8776	130.2492
675.0322	130.0938
675.1868	134.6915
675.3414	126.0899
675.4959	126.5557
675.6505	126.9801
675.805	127.7239
675.9595	126.0143
676.1141	127.4875
676.2686	127.9211
676.4231	123.278
676.5776	131.9171
676.7321	127.1626
676.8866	126.6281
677.041	126.064
677.1955	128.4357
677.35	131.1136
677.5044	128.9508
677.6589	132.6096
677.8133	131.577
677.9677	130.489
678.1221	128.7098
678.2766	123.3616
678.4309	129.7576
678.5853	128.3668
678.7397	125.8445
678.8941	121.7534
679.0485	123.7001
679.2028	127.9389
679.3571	126.9755
679.5115	129.7496
679.6658	124.5325
679.8201	117.6013
679.9744	122.0668
680.1288	123.8624
680.2831	125.7072
680.4373	119.339
680.5916	122.3007
680.7459	120.75
680.9001	120.8665
681.0544	121.7132
681.2087	119.0207
681.3629	121.0916
681.5171	123.0027
681.6713	120.3224
681.8256	120.0821
681.9797	121.4993
682.134	121.7775
682.2881	123.8212
682.4423	122.5608
682.5965	116.9291
682.7507	121.0315
682.9048	120.7901
683.059	120.0252
683.2131	122.7773
683.3672	120.6281
683.5213	118.8961
683.6754	114.3574
683.8295	117.8714
683.9836	116.385
684.1377	112.191
684.2918	115.1934
684.4459	119.8963
684.5999	118.5188
684.754	114.0011
684.908	110.9443
685.062	115.5405
685.2161	116.8692
685.3701	117.6834
685.5241	116.0778
685.6781	111.7083
685.8321	110.2877
685.9861	107.9413
686.14	111.8759
686.294	111.0293
686.4479	117.1734
686.6019	108.3573
686.7559	95.76457
686.9098	91.33511
687.0637	89.73527
687.2176	82.40839
687.3715	84.61008
687.5254	92.20716
687.6793	92.93932
687.8332	92.53098
687.9871	99.77438
688.1409	101.3372
688.2947	101.7315
688.4486	100.389
688.6024	101.374
688.7563	104.8459
688.9101	96.50361
689.0639	97.35139
689.2177	98.96653
689.3715	93.15268
689.5253	98.76014
689.6791	97.19869
689.8328	104.751
689.9866	96.85365
690.1403	97.7559
690.2941	96.3867
690.4478	97.63171
690.6015	99.77728
690.7552	98.91048
690.9089	102.3204
691.0626	103.0237
691.2164	97.93936
691.37	108.0421
691.5237	102.2044
691.6774	102.142
691.831	100.1293
691.9847	100.2216
692.1383	97.95132
692.2919	96.32588
692.4456	90.57675
692.5992	97.92768
692.7527	105.9782
692.9064	96.82013
693.0599	96.10083
693.2136	99.66178
693.3671	97.79969
693.5207	99.35234
693.6742	98.53658
693.8278	96.2738
693.9813	97.68195
694.1348	94.87444
694.2883	95.24342
694.4418	97.03574
694.5953	96.38465
694.7488	96.66314
694.9023	95.70203
695.0558	96.41522
695.2093	97.39323
695.3627	99.79579
695.5162	100.6242
695.6696	101.4176
695.8231	102.0379
695.9764	102.0078
696.1299	101.1685
696.2833	93.78504
696.4367	94.80939
696.5901	97.42824
696.7435	97.86186
696.8968	101.5659
697.0502	100.7645
697.2036	101.6783
697.3569	101.604
697.5102	98.70895
697.6635	98.59412
697.8168	106.5369
697.9702	99.88012
698.1235	98.76564
698.2768	101.1519
698.4301	96.88845
698.5833	97.44447
698.7366	96.63203
698.8898	96.62895
699.0431	95.78601
699.1964	96.41248
699.3495	93.78288
699.5028	95.45675
699.656	93.78828
699.8092	96.69907
699.9624	94.30377
700.1156	96.1217
700.2688	100.4164
700.4219	96.90701
700.5751	92.87408
700.7283	89.05607
700.8814	92.69377
701.0345	98.69733
701.1877	96.59425
701.3408	92.97421
701.4939	90.13961
701.647	94.82768
701.8001	91.8972
701.9532	93.54453
702.1063	96.88543
702.2593	91.52081
702.4124	91.36927
702.5654	88.02901
702.7184	90.66881
702.8715	89.72028
703.0245	93.86627
703.1776	93.13709
703.3305	90.61877
703.4835	92.79992
703.6365	98.33131
703.7895	96.37569
703.9424	98.43803
704.0954	94.21261
704.2484	95.04112
704.4013	96.8305
704.5543	96.32784
704.7072	97.73592
704.8601	100.5045
705.013	97.7891
705.1659	98.12804
705.3188	96.94069
705.4717	94.52924
705.6246	96.73392
705.7774	94.95601
705.9303	97.65862
706.0831	96.37856
706.236	93.14694
706.3888	99.14666
706.5416	97.07754
706.6944	101.2559
706.8472	96.04005
707	98.08675
707.1528	96.43832
707.3056	96.86526
707.4583	94.11869
707.6111	95.50384
707.7639	96.30681
707.9166	91.18792
708.0693	95.47511
708.222	99.6656
708.3748	99.03009
708.5275	97.79429
708.6802	95.36624
708.8328	95.61081
708.9855	95.02816
709.1382	93.56679
709.2909	96.61646
709.4435	92.72386
709.5962	101.1291
709.7488	97.24657
709.9014	93.13457
710.054	93.84752
710.2067	92.97933
710.3593	95.26875
710.5118	92.70037
710.6644	91.28702
710.817	91.70131
710.9695	93.91336
711.1221	96.3548
711.2747	94.88818
711.4272	93.16117
711.5797	94.13741
711.7322	92.48522
711.8848	96.16154
712.0373	92.96004
712.1898	95.8186
712.3422	92.90102
712.4948	89.97469
712.6472	90.62222
712.7996	92.26205
712.9521	97.77347
713.1046	93.20128
713.257	87.32347
713.4094	92.95036
713.5618	95.1492
713.7142	91.34886
713.8666	94.16408
714.019	90.51458
714.1714	86.69398
714.3237	96.29636
714.4761	96.74063
714.6285	90.04371
714.7808	91.05005
714.9331	86.76469
715.0854	89.13987
715.2378	88.79754
715.3901	93.92752
715.5424	89.32076
715.6947	93.36987
715.8469	92.70347
715.9992	91.18736
716.1515	91.23862
716.3037	90.58734
716.456	84.16081
716.6082	82.09917
716.7604	84.75381
716.9127	82.73388
717.0649	76.85695
717.2171	82.33051
717.3693	78.23378
717.5214	76.34674
717.6736	75.34174
717.8258	73.04571
717.978	79.03622
718.1301	81.0733
718.2822	80.89883
718.4344	74.91846
718.5865	72.48677
718.7386	76.32574
718.8907	69.08801
719.0428	67.99194
719.1949	69.41196
719.3469	71.20531
719.499	76.38596
719.6511	79.47866
719.8031	73.67443
719.9551	70.18723
720.1072	70.50829
720.2592	76.57455
720.4112	71.67952
720.5632	72.96313
720.7152	78.19855
720.8672	77.70346
721.0192	81.90344
721.1711	82.7827
721.3231	82.05875
721.475	77.77446
721.627	83.8259
721.7789	76.55994
721.9308	85.44928
722.0828	82.44236
722.2347	79.96892
722.3866	85.42239
722.5385	81.78304
722.6903	78.81293
722.8422	80.01306
722.9941	81.40675
723.1459	73.35831
723.2977	73.13365
723.4496	67.81453
723.6014	74.03193
723.7532	79.77878
723.905	78.90485
724.0568	76.70419
724.2086	71.65849
724.3604	73.96606
724.5121	77.18455
724.6639	75.20285
724.8157	79.16743
724.9674	72.81744
725.1191	75.25432
725.2709	72.94596
725.4226	67.51528
725.5743	72.71958
725.726	73.33539
725.8777	73.62547
726.0294	77.00671
726.181	77.26037
726.3327	76.08276
726.4844	73.72409
726.636	73.81831
726.7877	73.81341
726.9393	75.23662
727.0909	74.24908
727.2425	71.62914
727.3941	72.94978
727.5457	73.94609
727.6973	70.9705
727.8488	69.52016
728.0004	76.12064
728.1519	76.72992
728.3035	77.57857
728.455	76.09124
728.6066	72.72942
728.7581	74.64748
728.9095	65.11554
729.0611	69.47009
729.2126	67.8883
729.364	69.65314
729.5155	73.72534
729.667	76.38674
729.8184	76.88935
729.9698	72.46779
730.1213	73.83057
730.2727	70.87686
730.4241	70.88882
730.5756	75.40597
730.7269	75.66153
730.8784	74.76163
731.0297	76.96641
731.1811	71.11486
731.3325	75.39766
731.4838	74.15398
731.6351	71.61568
731.7865	73.39582
731.9378	76.75357
732.0891	72.61303
732.2404	73.18176
732.3917	75.69296
732.543	78.67917
732.6943	77.18155
732.8456	75.43772
732.9968	74.24257
733.1481	85.00453
733.2993	79.80256
733.4506	76.85505
733.6018	76.29018
733.753	77.8642
733.9042	78.60532
734.0554	78.63152
734.2066	78.05994
734.3578	83.07391
734.509	80.46243
734.6602	74.6874
734.8113	77.64956
734.9624	71.84045
735.1136	70.74127
735.2647	73.91647
735.4158	77.28262
735.5669	77.47481
735.718	76.97884
735.8691	75.25406
736.0201	77.2134
736.1713	78.98747
736.3223	76.99103
736.4733	77.71771
736.6244	76.0434
736.7755	71.2631
736.9265	73.30819
737.0775	75.56128
737.2285	76.14614
737.3795	76.10871
737.5305	79.91985
737.6815	75.35443
737.8324	81.10001
737.9834	81.34273
738.1343	77.46103
738.2853	76.6916
738.4362	72.51223
738.5871	77.61484
738.738	75.3102
738.8889	74.97491
739.0399	71.39532
739.1907	78.32314
739.3416	78.31859
739.4925	76.12508
739.6433	75.86436
739.7942	71.79909
739.945	71.45406
740.0958	76.89317
740.2467	75.49152
740.3975	77.11275
740.5483	80.16094
740.6991	77.44498
740.8499	72.63017
741.0007	73.30638
741.1514	75.65689
741.3022	72.17113
741.4529	65.43798
741.6036	72.55089
741.7544	81.15044
741.9051	73.8623
742.0558	73.97469
742.2065	69.62823
742.3572	74.28065
742.5079	78.39714
742.6586	75.13403
742.8093	76.1309
742.9599	75.1972
743.1105	75.8877
743.2612	76.55421
743.4118	72.49109
743.5624	74.7057
743.7131	77.09048
743.8636	72.03764
744.0142	66.71531
744.1648	70.9371
744.3154	69.45706
744.4659	74.01238
744.6165	75.50578
744.767	73.74691
744.9176	80.41391
745.0681	73.70297
745.2186	72.51292
745.3691	74.30081
745.5197	71.0097
745.6702	70.31091
745.8206	69.20522
745.9711	72.08611
746.1215	73.91302
746.272	68.97686
746.4224	72.10037
746.5729	76.5668
746.7233	70.90473
746.8737	70.60251
747.0241	70.47153
747.1745	68.48505
747.3249	69.5314
747.4753	71.36415
747.6257	72.90662
747.776	74.18583
747.9264	72.02068
748.0767	75.56718
748.2271	75.33287
748.3774	71.08527
748.5276	70.883
748.678	68.05247
748.8282	72.4828
748.9786	77.97933
749.1288	68.02391
749.2791	68.33662
749.4294	64.65376
749.5796	68.48483
749.7299	67.52366
749.8801	72.43325
750.0303	71.0172
750.1805	65.62067
750.3307	69.74707
750.4809	68.77736
750.6311	70.72017
750.7813	72.52801
750.9314	67.33752
751.0816	65.46085
751.2318	68.4701
751.3818	63.29681
751.532	65.06909
751.6821	67.87698
751.8322	67.31518
751.9823	66.32379
752.1324	66.91625
752.2825	67.27858
752.4326	68.99259
752.5826	69.0492
752.7327	64.5535
752.8827	70.35745
753.0327	69.95343
753.1827	67.60047
753.3328	69.54172
753.4828	67.28778
753.6328	67.54818
753.7828	63.78787
753.9327	64.51524
754.0827	66.19932
754.2327	68.9992
754.3826	65.37234
754.5325	65.19796
754.6825	63.40316
754.8324	65.12621
754.9823	68.78587
755.1322	64.98438
755.2821	61.37585
755.432	65.20161
755.5818	68.18971
755.7318	66.16784
755.8816	62.63128
756.0314	63.66066
756.1813	69.1346
756.3311	67.42536
756.4809	69.93411
756.6307	64.52306
756.7805	68.54444
756.9303	64.47643
757.0801	61.29281
757.2299	57.05183
757.3796	64.85361
757.5294	66.95135
757.6791	61.28469
757.8289	65.65262
757.9786	64.51835
758.1283	55.31553
758.278	58.86573
758.4277	58.02634
758.5773	57.54079
758.7271	56.23974
758.8767	55.49821
759.0264	60.87524
759.176	54.93029
759.3256	57.69287
759.4753	44.96379
759.6249	43.73218
759.7745	34.50881
759.9241	37.0281
760.0737	33.58736
760.2233	33.36055
760.3729	25.99715
760.5224	27.8668
760.6719	29.31516
760.8215	24.29827
760.971	30.05536
761.1205	30.93186
761.2701	34.62732
761.4196	32.8575
761.5691	36.21555
761.7186	42.35038
761.868	47.15474
762.0175	47.63028
762.167	48.88884
762.3164	44.89463
762.4659	43.28588
762.6153	34.81194
762.7647	37.29335
762.9141	36.35415
763.0635	34.38021
763.2129	37.97495
763.3623	38.7591
763.5117	37.52946
763.661	34.18598
763.8104	37.66156
763.9597	37.93831
764.1091	39.34833
764.2584	37.99504
764.4077	37.06497
764.557	39.87637
764.7063	39.24353
764.8556	40.62315
765.0049	44.65785
765.1541	45.37866
765.3034	43.6428
765.4526	46.42553
765.6019	47.48762
765.7511	47.68924
765.9003	45.1881
766.0496	45.74828
766.1987	43.90221
766.348	50.49334
766.4971	46.74805
766.6463	46.0369
766.7955	50.27276
766.9446	50.07041
767.0938	52.97875
767.2429	49.18203
767.392	52.91152
767.5411	52.62873
767.6902	53.5006
767.8394	51.12405
767.9884	53.35005
768.1375	49.22849
768.2866	53.55455
768.4356	50.79845
768.5847	54.85033
768.7337	55.52226
768.8828	55.94781
769.0317	54.99673
769.1808	53.03833
769.3298	53.78933
769.4788	46.13123
769.6277	54.11189
769.7767	53.90568
769.9257	52.54732
770.0746	52.03699
770.2236	55.80338
770.3725	49.88466
770.5214	54.87474
770.6703	54.35681
770.8193	51.91185
770.9681	52.33843
771.1171	53.12197
771.2659	53.56057
771.4148	48.88225
771.5637	50.6607
771.7125	52.55854
771.8613	53.03909
772.0101	50.15171
772.159	51.5018
772.3078	56.21343
772.4566	52.81355
772.6054	52.1608
772.7542	50.66584
772.903	50.83436
773.0517	47.90661
773.2004	52.55825
773.3492	52.68
773.4979	53.59623
773.6467	49.66191
773.7953	50.13157
773.944	49.68902
774.0928	48.89389
774.2415	49.42236
774.3901	53.1438
774.5388	52.02756
774.6874	48.16821
774.8361	48.48954
774.9847	52.50573
775.1334	51.43393
775.282	47.35587
775.4305	50.06373
775.5792	47.30718
775.7277	53.1896
775.8763	53.41189
776.0249	51.25746
776.1735	50.45137
776.322	50.34642
776.4705	48.83416
776.6191	51.06678
776.7676	49.96172
776.9161	50.78828
777.0646	51.75983
777.2131	50.27679
777.3616	46.91061
777.5101	47.8789
777.6585	46.92134
777.8069	49.79905
777.9554	44.74211
778.1038	50.22192
778.2523	49.25711
778.4007	49.53375
778.5491	47.47592
778.6974	44.61874
778.8459	52.85119
778.9942	48.78593
779.1426	45.80727
779.291	41.94145
779.4393	42.49478
779.5876	49.69478
779.736	43.71476
779.8843	46.71105
780.0326	49.36106
780.1809	49.28538
780.3292	46.97711
780.4775	42.3619
780.6257	44.94411
780.774	44.62056
780.9222	45.62418
781.0704	44.12786
781.2187	46.87183
781.3669	46.95702
781.5151	45.82243
781.6633	51.24888
781.8115	45.17328
781.9597	37.9562
782.1078	44.35428
782.256	45.79715
782.4042	46.8308
782.5523	44.80265
782.7004	40.28042
782.8486	42.14678
782.9967	48.89391
783.1448	49.99752
783.2929	46.96826
783.441	45.64914
783.5891	47.85756
783.7371	44.08185
783.8851	43.52149
784.0332	46.15427
784.1812	43.63406
784.3293	46.13035
784.4773	32.76693
784.6253	44.08228
784.7733	49.16412
784.9213	45.35314
785.0692	47.61087
785.2172	45.46368
785.3652	47.15139
785.5131	46.24207
785.6611	45.97872
785.809	41.88434
785.9569	44.30296
786.1048	46.26913
786.2527	40.6211
786.4006	40.2774
786.5485	45.00206
786.6964	43.53139
786.8442	42.8062
786.9921	39.97414
787.1399	42.80896
787.2877	47.26139
787.4355	44.94591
787.5833	42.3848
787.7311	39.03601
787.8789	43.35891
788.0267	40.88441
788.1745	43.97542
788.3223	41.2742
788.47	42.01636
788.6177	43.30155
788.7654	38.241
788.9132	39.79797
789.0609	41.81535
789.2086	37.74983
789.3563	43.23483
789.504	37.69831
789.6517	42.27547
789.7993	40.64558
789.947	40.49248
790.0946	41.40111
790.2422	35.68632
790.3898	46.79257
790.5375	47.45375
790.6851	44.92358
790.8326	38.43817
790.9802	40.03373
791.1278	38.27616
791.2754	40.68747
791.423	43.34498
791.5705	39.67962
791.718	42.85846
791.8655	42.49052
792.0131	40.51993
792.1606	41.07516
792.308	36.66272
792.4556	38.35211
792.603	41.93894
792.7505	40.95555
792.8979	41.92875
793.0454	41.24166
793.1928	44.20793
793.3403	38.494
793.4877	43.81304
793.6351	41.63916
793.7825	37.11245
793.9299	41.43449
794.0772	42.22581
794.2246	43.73199
794.3719	41.86443
794.5193	39.15546
794.6666	38.50711
794.814	43.0863
794.9613	42.39618
795.1086	41.75385
795.2559	44.32826
795.4032	41.61353
795.5505	41.48233
795.6978	40.24645
795.845	37.89645
795.9922	37.2281
796.1395	42.56702
796.2867	38.05376
796.4339	36.03431
796.5811	38.85786
796.7283	35.94965
796.8755	36.8964
797.0227	37.82548
797.1699	34.86023
797.317	39.57003
797.4642	38.77407
797.6113	36.26867
797.7584	41.41771
797.9056	44.3745
798.0527	40.6491
798.1998	37.28506
798.3469	36.03751
798.494	35.09662
798.641	36.75397
798.7881	39.67701
798.9351	38.60962
799.0822	39.93766
799.2292	33.9939
799.3762	35.19367
799.5232	34.46056
799.6702	36.27357
799.8172	37.2016
799.9642	34.77871
800.1111	32.95608
800.2581	37.17418
800.4051	41.04092
800.552	41.60492
800.6989	40.62122
800.8458	34.84127
800.9927	34.50838
801.1396	35.54469
801.2866	34.87325
801.4334	36.121
801.5803	35.77063
801.7272	37.97155
801.874	41.95034
802.0209	34.65022
802.1677	36.14742
802.3145	34.66647
802.4613	39.90186
802.6081	34.16526
802.7549	32.31606
802.9017	31.25318
803.0485	33.03342
803.1952	34.57088
803.342	37.85948
803.4887	37.83101
803.6354	32.50278
803.7822	36.4887
803.9289	41.80474
804.0756	36.13518
804.2223	36.46148
804.369	31.12211
804.5156	37.42651
804.6623	31.56371
804.8089	35.83853
804.9556	35.995
805.1022	35.51295
805.2488	33.4075
805.3954	35.8534
805.542	36.61317
805.6886	35.41809
805.8352	31.89852
805.9818	32.29307
806.1283	38.27116
806.2749	36.64646
806.4214	32.67624
806.5679	36.57439
806.7145	30.8926
806.861	32.56651
807.0074	34.77621
807.154	33.15591
807.3004	34.56032
807.4469	35.63128
807.5934	31.99576
807.7398	37.09683
807.8862	32.82555
808.0327	34.05436
808.1791	34.41638
808.3255	34.89816
808.4719	33.97484
808.6183	30.93159
808.7647	29.39989
808.9111	30.44959
809.0574	32.53299
809.2037	37.86942
809.3501	35.79248
809.4965	37.00377
809.6428	34.46606
809.7891	32.96978
809.9354	31.34188
810.0817	31.49147
810.2279	31.3761
810.3742	32.51821
810.5204	32.58392
810.6667	28.69122
810.8129	29.34983
810.9592	33.54297
811.1054	28.81404
811.2516	26.70018
811.3978	30.06256
811.5439	30.20221
811.6901	35.15089
811.8363	34.24253
811.9825	35.07983
812.1286	36.53988
812.2748	37.14271
812.4209	27.95682
812.567	32.81994
812.7131	32.39362
812.8592	30.42845
813.0053	27.61762
813.1514	33.54985
813.2974	27.8203
813.4435	29.33346
813.5895	30.2031
813.7356	26.48327
813.8816	31.93396
814.0276	26.87521
814.1736	26.39271
814.3196	28.81017
814.4656	27.969
814.6116	30.28809
814.7576	30.22875
814.9035	28.60158
815.0494	26.41018
815.1954	24.59714
815.3413	24.87883
815.4872	28.98905
815.6331	29.29243
815.779	28.65674
815.9249	30.32531
816.0707	29.49549
816.2166	29.16015
816.3625	27.90229
816.5083	27.03372
816.6542	26.6617
816.8	25.86227
816.9458	27.29038
817.0916	24.35751
817.2374	24.15183
817.3832	28.18266
817.5289	32.49858
817.6747	27.90371
817.8204	28.34105
817.9662	26.97535
818.1119	26.63727
818.2576	24.76557
818.4034	26.04121
818.5491	26.80661
818.6948	26.99021
818.8405	23.86801
818.9861	20.10541
819.1318	23.22493
819.2774	26.1295
819.423	24.31868
819.5687	28.02568
819.7143	25.11187
819.8599	23.38236
820.0055	24.8412
820.1511	22.29985
820.2967	22.45733
820.4422	23.0224
820.5878	27.79326
820.7333	29.58174
820.8788	29.9517
821.0244	28.30247
821.1699	27.07487
821.3154	28.20752
821.4609	25.83368
821.6064	21.64507
821.7519	26.65313
821.8973	27.23284
822.0428	22.62263
822.1882	23.86314
822.3337	26.38555
822.4791	23.92155
822.6245	28.48985
822.7699	21.84945
822.9153	21.49675
823.0607	19.10904
823.2061	20.48554
823.3514	22.45425
823.4968	21.49897
823.6422	25.25899
823.7875	24.7206
823.9328	24.78039
824.0781	28.52114
824.2234	26.21798
824.3687	25.58196
824.514	18.89266
824.6592	22.38924
824.8045	22.07402
824.9498	27.7113
825.095	28.54499
825.2402	24.91297
825.3854	25.32902
825.5306	25.87114
825.6758	26.47702
825.821	20.86751
825.9662	19.37372
826.1114	23.11419
826.2565	21.28117
826.4017	25.00336
826.5468	26.99717
826.692	26.02115
826.837	24.35669
826.9822	24.9266
827.1273	25.61188
827.2723	23.43459
827.4174	22.588
827.5625	22.35083
827.7075	18.28841
827.8526	26.54075
827.9976	25.8208
828.1426	20.68282
828.2877	21.77117
828.4327	23.13235
828.5776	26.07075
828.7227	26.52663
828.8676	21.08834
829.0126	19.43589
829.1575	26.22943
829.3024	27.09895
829.4474	19.12878
829.5923	22.56571
829.7372	29.44503
829.8821	23.68749
830.027	23.27993
830.1719	24.55198
830.3168	20.24697
830.4616	19.03799
830.6064	20.25586
830.7513	21.28838
830.8961	19.88332
831.041	22.45033
831.1857	25.21509
831.3306	21.92299
831.4753	20.39863
831.6201	22.46796
831.7649	21.49943
831.9096	20.92694
832.0544	22.14848
832.1991	17.38777
832.3438	24.66774
832.4885	23.65539
832.6332	26.86498
832.778	17.77769
832.9226	19.34457
833.0673	21.77236
833.2119	24.06749
833.3566	21.68499
833.5012	25.1918
833.6459	21.47859
833.7905	25.72418
833.9351	20.16678
834.0797	22.63876
834.2243	20.90336
834.3688	25.2637
834.5134	22.50249
834.658	25.76402
834.8026	24.98311
834.9471	19.92834
835.0916	17.48284
835.2361	19.81165
835.3806	21.32951
835.5251	23.17113
835.6696	25.42478
835.8141	27.50743
835.9586	20.6933
836.103	22.22319
836.2474	22.95481
836.3918	23.84844
836.5363	27.77702
836.6807	25.31644
836.8251	24.13269
836.9695	21.53644
837.1138	23.74806
837.2582	17.24645
837.4026	21.02404
837.5469	23.61134
837.6913	20.44235
837.8356	23.1365
837.9799	21.97972
838.1242	19.33237
838.2686	17.30065
838.4128	21.50815
838.5571	24.87786
838.7014	21.44187
838.8456	20.35428
838.9899	21.49601
839.1341	19.23497
839.2783	20.31218
839.4225	24.57259
839.5667	23.05833
839.7109	23.87959
839.8551	23.68776
839.9993	17.90098
840.1434	23.20334
840.2876	23.42711
840.4317	22.91587
840.5759	24.5022
840.72	19.21576
840.8641	20.33332
841.0082	22.66616
841.1523	21.93312
841.2963	23.27997
841.4404	24.96383
841.5845	26.63077
841.7285	26.17296
841.8726	22.90362
842.0165	22.56936
842.1606	20.98173
842.3046	20.1335
842.4485	20.74532
842.5925	24.97319
842.7365	20.94798
842.8805	19.7932
843.0244	22.52843
843.1684	25.93825
843.3123	22.53155
843.4562	25.67521
843.6002	26.1577
843.744	24.79816
843.8879	22.07632
844.0318	24.09311
844.1757	21.77378
844.3195	22.13663
844.4634	22.32687
844.6072	23.46942
844.751	25.49707
844.8948	23.39776
845.0386	20.26106
845.1824	18.19752
845.3262	23.14227
845.47	24.32438
845.6138	19.8632
845.7575	19.30544
845.9012	14.7847
846.045	22.30301
846.1887	27.10469
846.3324	27.8286
846.4761	23.99099
846.6198	23.52764
846.7635	19.2176
846.9071	23.95612
847.0508	20.98105
847.1944	22.16429
847.3381	21.05828
847.4817	19.76937
847.6253	21.73654
847.7689	21.06505
847.9125	25.04249
848.0561	20.5883
848.1996	22.42191
848.3432	19.1056
848.4868	21.76741
848.6303	23.59467
848.7738	18.7656
848.9174	20.87883
849.0609	22.69469
849.2043	19.44536
849.3478	18.2329
849.4913	21.79891
849.6348	20.49841
849.7782	20.22977
849.9217	23.26128
850.0651	21.08346
850.2086	17.90806
850.3519	19.78862
850.4954	23.27243
850.6387	19.7465
850.7821	20.19588
850.9255	24.07859
851.0688	18.16807
851.2122	22.17779
851.3555	19.30483
851.4988	20.31964
851.6422	18.76044
851.7855	21.23853
851.9288	24.7163
852.0721	21.50312
852.2153	18.1404
852.3586	18.16982
852.5018	17.49728
852.6451	19.35718
852.7883	21.41998
852.9315	11.7034
853.0748	17.26379
853.218	20.34428
853.3611	18.99777
853.5043	21.22191
853.6475	17.63705
853.7906	15.53427
853.9338	19.11404
854.0769	20.24832
854.22	17.23667
854.3632	18.94007
854.5063	18.06487
854.6494	14.79843
854.7924	14.78083
854.9355	17.22262
855.0786	17.90403
855.2216	19.72467
855.3647	20.55286
855.5077	21.70446
855.6507	18.31823
855.7937	16.21867
855.9367	13.96215
856.0797	21.82266
856.2227	19.47933
856.3657	16.68192
856.5086	17.68811
856.6516	18.41164
856.7945	19.81702
856.9374	19.68699
857.0803	20.81116
857.2232	19.99257
857.3661	22.14465
857.509	24.0055
857.6519	15.48956
857.7947	23.89866
857.9376	19.96439
858.0804	21.40039
858.2232	20.06054
858.366	20.68847
858.5089	20.83422
858.6516	21.91881
858.7944	19.52164
858.9372	22.20401
859.08	18.60987
859.2227	21.9807
859.3654	21.66158
859.5082	19.14442
859.6509	20.86145
859.7936	18.75992
859.9363	20.63366
860.079	18.08058
860.2217	19.15592
860.3643	17.9234
860.507	18.63426
860.6496	18.18623
860.7922	17.39468
860.9349	15.91063
861.0775	21.25517
861.2201	17.79487
861.3627	16.41832
861.5052	18.68446
861.6478	18.48007
861.7904	20.12347
861.9329	21.14134
862.0755	15.81693
862.218	17.43299
862.3605	14.86212
862.503	16.34491
862.6455	17.68464
862.788	18.91112
862.9305	16.08838
863.0729	17.62881
863.2154	15.99059
863.3578	17.45796
863.5002	17.70583
863.6426	17.62424
863.7851	18.01367
863.9275	14.90672
864.0698	14.26905
864.2122	16.85941
864.3546	15.93287
864.4969	21.55194
864.6393	18.02359
864.7816	13.6322
864.924	14.7251
865.0662	14.26874
865.2086	22.51473
865.3508	18.39239
865.4931	14.66105
865.6354	13.68486
865.7776	13.82223
865.9199	14.94617
866.0621	11.41634
866.2043	14.42344
866.3466	16.17734
866.4888	14.17709
866.6309	16.30388
866.7731	16.10122
866.9153	16.79851
867.0574	17.16327
867.1996	15.55492
867.3417	14.55747
867.4839	12.39538
867.626	16.17072
867.7681	14.73751
867.9102	14.55943
868.0522	17.02491
868.1943	14.17487
868.3364	16.59259
868.4785	17.75111
868.6205	16.26713
868.7625	12.72749
868.9045	11.06261
869.0465	18.18639
869.1885	19.62182
869.3305	14.28845
869.4725	14.27849
869.6144	14.85967
869.7564	15.68586
869.8983	17.65521
870.0403	17.66364
870.1822	13.49761
870.3241	12.52371
870.466	16.50034
870.6079	16.32195
870.7498	13.91179
870.8916	14.21229
871.0335	17.10314
871.1754	18.26912
871.3171	18.51621
871.459	13.29519
871.6008	19.40294
871.7426	14.91549
871.8844	16.32426
872.0262	16.5589
872.1679	13.95969
872.3097	13.45873
872.4514	13.81717
872.5931	13.03677
872.7349	14.22138
872.8766	15.27624
873.0183	16.77932
873.16	14.3359
873.3017	17.17465
873.4434	17.86681
873.585	18.35051
873.7266	17.40691
873.8683	18.08697
874.0099	13.11556
874.1516	15.9209
874.2932	12.15773
874.4348	15.72814
874.5763	14.20381
874.7179	17.45311
874.8594	16.39451
875.001	17.55272
875.1425	12.93865
875.2841	17.85489
875.4256	11.28427
875.5671	16.0514
875.7086	13.68847
875.85	14.7656
875.9915	19.19205
876.133	17.95308
876.2744	15.45845
876.4159	14.82287
876.5573	17.17206
876.6987	15.95507
876.8401	12.8697
876.9815	11.29227
877.1229	12.8475
877.2643	14.83625
877.4056	15.88997
877.547	11.7228
877.6884	12.72785
877.8297	18.97292
877.971	11.6502
878.1123	14.37595
878.2536	13.60801
878.3949	17.62391
878.5362	14.7477
878.6774	13.81729
878.8187	11.50667
878.9599	11.88606
879.1011	18.02211
879.2424	14.16586
879.3836	13.05736
879.5248	18.00205
879.666	16.49385
879.8071	17.38151
879.9483	16.45438
880.0895	16.20428
880.2306	15.4729
880.3718	14.7107
880.5129	16.46915
880.654	13.05413
880.7951	14.90541
880.9362	14.05389
881.0773	13.76746
881.2183	14.69196
881.3594	10.20498
881.5004	14.76705
881.6414	14.66987
881.7825	12.97161
881.9235	12.87884
882.0645	13.88853
882.2054	16.1353
882.3464	10.10522
882.4874	10.04695
882.6284	9.683195
882.7693	12.21999
882.9103	18.04024
883.0512	16.20188
883.1921	15.47745
883.333	15.42714
883.4739	14.50858
883.6147	17.36998
883.7556	14.70394
883.8965	9.911658
884.0374	10.48092
884.1782	16.06476
884.319	16.15815
884.4598	18.13843
884.6006	12.00756
884.7414	15.83752
884.8822	17.61822
885.0229	16.06394
885.1637	12.85357
885.3044	14.22096
885.4452	17.61905
885.5859	16.49319
885.7266	12.83983
885.8673	10.11233
886.008	11.00385
886.1487	11.37513
886.2894	11.68893
886.43	14.94353
886.5707	13.66339
886.7113	12.56103
886.8519	11.6346
886.9926	9.134175
887.1331	11.68381
887.2737	13.69257
887.4143	13.62873
887.5549	14.54836
887.6954	16.26457
887.836	7.389685
887.9765	11.19697
888.1171	9.869003
888.2576	13.70656
888.3981	16.34435
888.5386	12.78861
888.679	13.30067
888.8195	10.49527
888.96	16.67916
889.1004	14.28621
889.2408	10.35482
889.3813	9.369197
889.5217	12.48265
889.6621	11.19281
889.8025	13.75123
889.9429	18.183
890.0833	8.027686
890.2236	6.342192
890.364	6.983522
890.5043	8.573069
890.6446	12.30763
890.7849	16.00247
890.9252	11.33002
891.0655	13.06446
891.2058	16.2751
891.3461	13.87881
891.4863	11.76497
891.6266	13.48397
891.7668	12.67396
891.907	11.36462
892.0472	14.01157
892.1874	15.12397
892.3276	11.18513
892.4678	7.019681
892.608	12.91938
892.7481	12.1004
892.8883	14.23459
893.0284	10.86555
893.1685	11.39776
893.3087	12.53127
893.4487	15.01764
893.5889	8.384832
893.7289	11.14831
893.869	9.34338
894.009	9.621429
894.1491	8.683435
894.2891	9.120435
894.4291	13.79901
894.5692	9.005718
894.7092	9.794725
894.8491	8.51205
894.9891	8.110994
895.1291	9.833221
895.269	6.876369
895.409	11.55026
895.549	11.80471
895.6888	12.74711
895.8288	11.95292
895.9687	13.22806
896.1086	14.14589
896.2484	13.60591
896.3883	7.761959
896.5281	6.899029
896.668	3.339236
896.8079	11.76567
896.9476	11.24437
897.0875	10.75648
897.2272	11.85093
897.3671	13.55494
897.5068	7.402046
897.6466	11.68613
897.7864	10.84943
897.9261	14.79936
898.0658	12.97601
898.2056	8.06408
898.3453	7.968697
898.4849	14.63117
898.6246	15.82345
898.7643	12.14831
898.904	10.3018
899.0436	8.030855
899.1833	8.23554
899.3229	7.305982
899.4625	12.47814
899.6021	10.91829
899.7417	8.311706
899.8813	12.8987
900.0209	8.23985
900.1605	11.27758
900.3	10.18432
900.4395	9.431174
900.579	8.433146
900.7186	15.25485
900.8581	8.668088
900.9976	11.99599
901.1371	12.45893
901.2766	9.55349
901.416	7.714546
901.5555	10.84919
901.6949	8.179012
901.8344	12.142
901.9738	12.97426
902.1132	9.3686
902.2526	10.92095
902.3919	9.927117
902.5313	9.261743
902.6707	8.345761
