SPECTRUM DATA FILE
SpectrumCount:	1
PixelCount:	3648
UserName:	ToughBook User
SampleName:	
LightSource:	
Comments:	
DeviceName:	Qwave
DeviceManufacturer:	Broadcom
DeviceSerialNo:	11311

Name:	last spectrum
Date:	2024-05-02T15:22:06.8825470+02:00
ExposureTime:	0.02
TemporalAvg:	1
IntensityUnit:	normalizedCounts
CCDLoadLevel:	0.07737845
Temperature:	29.87341
DiagramColor:	200
ProcessingSteps:	335

Wavelength [nm]	Intensity1
334.421	19.18143
334.5891	20.30175
334.7573	19.07332
334.9254	21.90712
335.0935	24.51677
335.2616	21.44698
335.4297	20.04482
335.5978	19.87499
335.7659	22.11661
335.934	21.75134
336.1021	18.32266
336.2701	15.59898
336.4382	13.64798
336.6063	15.84223
336.7744	14.10065
336.9424	16.41533
337.1105	13.40805
337.2785	21.12923
337.4466	23.1911
337.6146	21.53008
337.7827	20.74074
337.9507	16.27417
338.1187	14.32139
338.2867	16.64641
338.4548	17.94565
338.6228	16.5714
338.7908	18.00996
338.9588	16.96418
339.1268	23.43856
339.2948	17.36741
339.4628	19.23847
339.6308	21.93698
339.7988	21.97836
339.9667	18.59029
340.1347	16.69677
340.3027	17.48841
340.4707	20.92151
340.6386	15.72374
340.8066	17.12184
340.9745	19.78775
341.1425	14.88411
341.3104	18.55144
341.4784	20.07062
341.6463	19.55859
341.8142	19.18822
341.9821	18.72087
342.1501	23.75933
342.318	20.48529
342.4859	19.75832
342.6538	23.1832
342.8217	21.99337
342.9896	22.87787
343.1575	19.4532
343.3254	22.24318
343.4933	23.4444
343.6612	21.65092
343.829	22.01731
343.9969	19.18945
344.1648	19.57548
344.3326	13.24353
344.5005	17.00635
344.6683	21.2394
344.8362	20.58734
345.004	24.14535
345.1719	21.54162
345.3397	22.80244
345.5075	24.20727
345.6754	23.75535
345.8432	20.26496
346.011	19.53416
346.1788	23.28693
346.3466	21.67232
346.5144	22.65699
346.6822	25.21463
346.85	22.84705
347.0178	21.05369
347.1856	23.18491
347.3534	22.55598
347.5211	16.84298
347.6889	20.00447
347.8567	23.39152
348.0244	21.5934
348.1922	21.55755
348.3599	28.00898
348.5277	26.07828
348.6954	23.37314
348.8632	18.69463
349.0309	21.4052
349.1986	14.55692
349.3663	19.03169
349.5341	19.98735
349.7018	21.62839
349.8695	23.57206
350.0372	22.67315
350.2049	23.95387
350.3726	29.06088
350.5403	28.08291
350.7079	28.80939
350.8756	25.4315
351.0433	21.55547
351.211	24.20759
351.3786	26.40274
351.5463	28.01705
351.714	23.38354
351.8816	24.72755
352.0493	27.42631
352.2169	17.56885
352.3846	21.51032
352.5522	20.55397
352.7198	21.16719
352.8875	20.28576
353.0551	26.92182
353.2227	28.23295
353.3903	28.99272
353.5579	33.83636
353.7255	28.68778
353.8931	29.62538
354.0607	29.56453
354.2283	27.98265
354.3958	34.59578
354.5634	31.90002
354.731	27.3585
354.8986	25.071
355.0661	27.26177
355.2337	30.88966
355.4012	35.62946
355.5688	32.28331
355.7363	33.02431
355.9039	27.77399
356.0714	30.22659
356.239	31.0343
356.4065	25.1303
356.574	21.90492
356.7415	21.29451
356.909	19.35503
357.0765	24.31858
357.244	25.41552
357.4115	26.37141
357.579	26.83237
357.7465	26.5727
357.914	16.96155
358.0815	21.74376
358.249	19.79448
358.4164	23.61758
358.5839	18.72708
358.7513	22.03298
358.9188	24.49856
359.0862	24.50526
359.2537	28.73456
359.4211	29.55108
359.5886	26.84427
359.756	30.01135
359.9234	35.16832
360.0909	29.68286
360.2583	27.42749
360.4257	31.54279
360.5931	28.50888
360.7605	24.78774
360.9279	25.2282
361.0953	23.09248
361.2627	29.27118
361.4301	29.00461
361.5974	23.79242
361.7648	23.92515
361.9322	25.90297
362.0995	26.49256
362.2669	28.66898
362.4343	31.96074
362.6016	33.26367
362.769	33.26297
362.9363	30.54818
363.1036	28.99856
363.271	29.01093
363.4383	31.79682
363.6056	32.91734
363.7729	32.40997
363.9402	40.61248
364.1075	40.04124
364.2748	37.75495
364.4421	30.24425
364.6094	32.54483
364.7767	32.82516
364.944	35.24135
365.1113	30.72422
365.2786	33.25658
365.4458	44.1456
365.6131	39.2856
365.7803	45.38351
365.9476	39.15245
366.1148	40.84087
366.2821	37.06371
366.4493	39.01363
366.6166	38.82539
366.7838	39.83272
366.951	39.28297
367.1182	38.57815
367.2855	35.29012
367.4527	37.6347
367.6199	36.29617
367.7871	35.46671
367.9543	39.09143
368.1215	36.31189
368.2886	37.90673
368.4558	38.0612
368.623	37.60549
368.7902	35.0014
368.9573	37.32314
369.1245	41.28825
369.2917	43.69341
369.4588	44.21731
369.6259	44.50395
369.7931	44.65047
369.9602	42.88232
370.1274	45.27701
370.2945	39.48008
370.4616	38.99015
370.6287	33.01712
370.7958	33.47536
370.963	44.12329
371.1301	44.75713
371.2971	47.37278
371.4643	52.25785
371.6313	52.97551
371.7984	45.14208
371.9655	38.12018
372.1326	35.82385
372.2997	38.25869
372.4667	38.81674
372.6338	47.52322
372.8008	46.93238
372.9679	44.16769
373.1349	40.60006
373.3019	36.87031
373.469	36.5023
373.636	30.7939
373.803	33.19305
373.9701	40.60665
374.1371	42.11758
374.3041	46.87754
374.4711	42.01706
374.6381	31.60494
374.8051	32.1423
374.9721	28.99065
375.1391	37.31515
375.3061	43.59176
375.473	45.5895
375.64	46.66208
375.8069	46.08519
375.9739	42.28956
376.1409	43.05777
376.3078	46.35218
376.4748	38.81915
376.6417	47.65244
376.8087	50.44184
376.9756	46.2926
377.1425	45.05633
377.3094	52.41154
377.4763	52.87619
377.6432	55.00959
377.8102	50.49025
377.9771	59.22938
378.144	58.34305
378.3109	55.07926
378.4777	54.04955
378.6446	52.61532
378.8115	50.02112
378.9784	47.43317
379.1452	47.76892
379.3121	45.54908
379.4789	41.7982
379.6458	43.69466
379.8127	46.69014
379.9795	47.69377
380.1463	48.0579
380.3131	53.20395
380.48	55.19178
380.6468	54.41057
380.8136	58.57539
380.9804	62.06816
381.1472	58.0919
381.314	53.39556
381.4808	48.75343
381.6476	44.30252
381.8144	49.69502
381.9812	48.37092
382.148	45.21061
382.3147	44.54653
382.4815	47.56343
382.6483	44.24577
382.815	36.34604
382.9818	36.42318
383.1485	40.42376
383.3153	35.13225
383.482	40.35223
383.6487	37.31975
383.8155	33.75921
383.9822	36.11084
384.1489	44.5549
384.3156	48.22984
384.4823	51.67702
384.649	60.6386
384.8157	63.85334
384.9824	52.82603
385.1491	57.93457
385.3158	52.02024
385.4825	57.36587
385.6491	52.03806
385.8158	51.9556
385.9825	45.77324
386.1491	49.61662
386.3157	52.94409
386.4824	58.21485
386.649	50.86478
386.8157	47.38561
386.9823	56.19331
387.1489	52.75616
387.3156	51.79543
387.4821	51.00016
387.6488	52.42377
387.8154	58.34889
387.982	49.2578
388.1486	49.50896
388.3152	51.69262
388.4818	50.85717
388.6483	51.326
388.8149	50.78646
388.9815	53.16342
389.148	60.00086
389.3146	66.9169
389.4811	69.17948
389.6477	67.33547
389.8142	71.07867
389.9808	72.91096
390.1473	67.35244
390.3138	64.3
390.4804	63.52279
390.6469	60.98064
390.8134	63.71089
390.9799	70.81114
391.1464	71.44147
391.3129	76.62561
391.4794	81.75056
391.6459	71.81299
391.8124	71.43749
391.9789	67.56238
392.1453	60.47979
392.3118	65.37269
392.4782	63.51916
392.6447	60.60733
392.8112	50.88436
392.9776	44.93162
393.144	38.93978
393.3105	31.92102
393.4769	32.49405
393.6433	37.20587
393.8098	44.0684
393.9762	53.20276
394.1426	58.16648
394.309	62.4627
394.4754	71.78476
394.6418	70.37569
394.8082	71.73147
394.9746	76.99161
395.141	82.07583
395.3073	80.89526
395.4737	81.65875
395.64	80.47258
395.8064	81.86427
395.9728	70.96478
396.1391	63.16216
396.3055	63.38025
396.4718	47.42134
396.6381	43.05865
396.8045	41.54119
396.9708	42.18557
397.1371	43.85484
397.3034	51.25135
397.4697	60.17345
397.636	80.58249
397.8023	84.48115
397.9686	91.24118
398.1349	95.34491
398.3012	91.26514
398.4675	92.0815
398.6337	88.66534
398.8	91.62944
398.9662	98.22831
399.1325	103.1182
399.2988	106.8061
399.465	106.7559
399.6313	105.3146
399.7975	102.5982
399.9637	109.3726
400.1299	110.7946
400.2961	108.9102
400.4624	101.9504
400.6286	104.5513
400.7948	104.1516
400.961	107.4204
401.1272	115.3302
401.2934	113.5314
401.4595	114.175
401.6257	105.5472
401.7919	108.3627
401.9581	111.6252
402.1242	111.5204
402.2904	112.206
402.4565	116.0932
402.6227	118.2091
402.7888	116.9799
402.955	111.6746
403.1211	106.8157
403.2872	106.6639
403.4533	107.2924
403.6194	110.8301
403.7856	117.7077
403.9517	119.8517
404.1177	118.7214
404.2838	111.2349
404.4499	103.1157
404.616	100.9225
404.7821	109.9735
404.9482	114.4532
405.1142	116.5156
405.2803	118.2171
405.4464	116.1634
405.6124	115.8271
405.7784	111.7518
405.9445	113.603
406.1105	112.5912
406.2766	107.4861
406.4426	104.091
406.6086	111.963
406.7746	114.4677
406.9406	118.0505
407.1066	120.4912
407.2726	120.2525
407.4386	122.6823
407.6046	113.2361
407.7706	112.7121
407.9366	116.0893
408.1025	127.0822
408.2685	128.6053
408.4344	124.9025
408.6004	126.8514
408.7664	138.5997
408.9323	138.3227
409.0983	133.111
409.2642	133.8894
409.4301	129.2906
409.596	126.6844
409.762	123.2447
409.9279	115.016
410.0938	110.7699
410.2597	104.4422
410.4256	103.4595
410.5915	121.5634
410.7574	139.2555
410.9232	134.9214
411.0891	134.4855
411.255	136.1353
411.4209	139.855
411.5867	145.3869
411.7526	148.5836
411.9184	142.913
412.0843	137.2544
412.2501	140.8192
412.4159	146.0392
412.5818	135.441
412.7476	139.9782
412.9134	135.7229
413.0792	133.0717
413.245	130.2257
413.4108	134.1926
413.5766	133.9077
413.7424	143.5111
413.9082	145.6093
414.074	143.7639
414.2397	138.1909
414.4055	125.917
414.5713	128.6197
414.737	149.1505
414.9028	143.947
415.0685	139.2158
415.2343	140.9451
415.4	136.4482
415.5658	136.3625
415.7315	136.3308
415.8972	142.0293
416.0629	152.8215
416.2286	157.049
416.3943	151.5644
416.56	149.05
416.7257	152.9981
416.8914	149.6234
417.0571	146.3697
417.2228	136.4319
417.3884	139.7195
417.5541	137.4069
417.7198	139.3776
417.8854	144.6865
418.0511	144.1714
418.2167	144.7623
418.3824	146.2566
418.548	146.0013
418.7136	144.6002
418.8792	145.2464
419.0449	147.9182
419.2105	157.1254
419.3761	168.5515
419.5417	162.2707
419.7073	145.3443
419.8729	141.8005
420.0385	142.3324
420.204	149.3099
420.3696	147.0816
420.5352	162.2725
420.7007	165.5975
420.8663	168.6951
421.0319	166.7191
421.1974	163.416
421.3629	166.9504
421.5285	161.1871
421.694	159.4915
421.8595	164.4316
422.0251	166.0953
422.1906	169.1578
422.3561	159.7095
422.5216	143.2752
422.6871	133.8275
422.8526	145.3746
423.0181	156.1536
423.1835	168.3392
423.349	169.0617
423.5145	164.7725
423.68	163.4995
423.8454	160.6199
424.0109	160.8354
424.1763	163.2807
424.3418	170.1915
424.5072	172.3676
424.6726	165.2459
424.838	159.573
425.0035	155.2905
425.1689	156.0023
425.3343	162.9574
425.4997	166.7385
425.6651	169.1328
425.8305	159.88
425.9959	157.1215
426.1613	154.4986
426.3267	161.3564
426.492	179.347
426.6574	177.5936
426.8228	167.7451
426.9881	161.606
427.1534	142.2931
427.3188	145.8324
427.4841	149.1775
427.6495	154.9519
427.8148	171.3704
427.9801	170.8719
428.1454	167.0752
428.3107	167.9734
428.476	168.7557
428.6414	164.3148
428.8066	150.7854
428.9719	150.4644
429.1372	155.8247
429.3025	156.5208
429.4678	160.6262
429.633	147.613
429.7983	135.7975
429.9636	129.1001
430.1288	122.8818
430.294	118.166
430.4593	129.0915
430.6245	130.6314
430.7897	121.3391
430.955	117.5338
431.1202	121.8728
431.2854	131.2299
431.4506	160.1371
431.6158	183.6965
431.781	196.0592
431.9462	201.2122
432.1114	189.4333
432.2766	174.4799
432.4417	157.6456
432.6069	156.7888
432.772	168.9994
432.9372	181.6917
433.1024	203.7446
433.2675	197.7477
433.4326	192.8634
433.5977	188.5854
433.7629	175.5265
433.928	160.0372
434.0931	146.0316
434.2582	153.3925
434.4233	170.3576
434.5884	185.0147
434.7535	192.3084
434.9186	204.7361
435.0837	190.7705
435.2488	186.7246
435.4138	186.6673
435.5789	195.0077
435.744	203.9872
435.909	202.174
436.0741	197.2761
436.2391	210.011
436.4042	219.1663
436.5692	220.2467
436.7342	212.5476
436.8992	204.9929
437.0643	211.3343
437.2293	210.8384
437.3943	193.9446
437.5593	193.8277
437.7243	202.1272
437.8893	215.7565
438.0542	205.4953
438.2192	183.9057
438.3842	170.6018
438.5491	167.5186
438.7141	181.1603
438.8791	195.3006
439.044	201.1429
439.209	203.8604
439.3739	208.9506
439.5388	203.3564
439.7037	206.9928
439.8687	215.9584
440.0336	211.8241
440.1985	210.5966
440.3634	198.5711
440.5283	196.0273
440.6932	199.2124
440.8581	209.4987
441.0229	216.8204
441.1878	217.9461
441.3527	222.7416
441.5175	218.5047
441.6824	213.847
441.8472	221.1644
442.0121	230.6219
442.1769	234.6177
442.3418	228.3214
442.5066	224.2305
442.6714	225.3622
442.8362	233.6398
443.001	232.3925
443.1659	234.9692
443.3307	226.6692
443.4955	217.484
443.6602	227.9068
443.825	232.9687
443.9898	232.6574
444.1546	238.9482
444.3193	238.1796
444.4841	231.7177
444.6488	233.8459
444.8136	246.4473
444.9783	243.2924
445.1431	239.0228
445.3078	238.6579
445.4725	231.0585
445.6372	219.7252
445.802	209.2119
445.9667	216.9846
446.1314	216.9982
446.2961	231.3493
446.4608	228.9016
446.6255	235.4224
446.7901	234.9721
446.9548	239.2683
447.1195	241.5858
447.2841	250.0928
447.4488	258.7976
447.6134	253.7698
447.7781	262.5801
447.9427	247.873
448.1074	239.5682
448.272	238.8461
448.4366	241.8475
448.6012	254.0711
448.7658	256.5845
448.9305	249.5207
449.095	248.6391
449.2596	254.1348
449.4242	252.0987
449.5888	248.833
449.7534	259.525
449.9179	267.8442
450.0825	265.2638
450.2471	267.0816
450.4116	274.7209
450.5762	280.7738
450.7407	281.6148
450.9052	284.1214
451.0698	284.17
451.2343	278.7338
451.3988	270.1045
451.5633	269.2086
451.7278	274.3768
451.8923	272.0379
452.0568	276.0309
452.2213	273.4643
452.3858	269.063
452.5503	256.7037
452.7148	250.62
452.8792	247.087
453.0437	246.2628
453.2081	248.6033
453.3726	247.7269
453.537	251.3563
453.7015	255.1682
453.8659	264.7481
454.0303	277.2031
454.1947	274.305
454.3592	268.3463
454.5236	269.6865
454.688	270.4879
454.8524	264.7022
455.0168	257.9433
455.1811	260.4092
455.3455	263.4238
455.5099	258.6239
455.6743	272.0926
455.8386	273.8163
456.003	283.1582
456.1673	282.8354
456.3317	287.1454
456.496	280.0395
456.6603	278.131
456.8246	282.302
456.989	287.0831
457.1533	285.48
457.3176	281.4749
457.4819	294.0552
457.6462	288.3442
457.8105	280.1825
457.9748	274.3281
458.1391	272.1439
458.3033	272.6467
458.4676	271.285
458.6319	271.8141
458.7961	270.1126
458.9604	281.2753
459.1246	286.0099
459.2888	274.8535
459.4531	273.7997
459.6173	272.769
459.7815	269.6106
459.9457	274.0278
460.11	275.1299
460.2741	274.8165
460.4384	279.1711
460.6025	284.1062
460.7667	276.7465
460.9309	281.1663
461.0951	293.3153
461.2592	284.5532
461.4234	283.5232
461.5876	277.443
461.7517	280.9824
461.9159	285.0558
462.08	283.3864
462.2441	288.003
462.4082	292.4495
462.5724	291.2576
462.7365	290.9511
462.9006	291.6254
463.0647	292.4133
463.2288	299.9256
463.3929	293.2444
463.557	292.7253
463.721	295.1217
463.8851	288.7859
464.0492	285.2487
464.2132	289.5106
464.3773	287.9879
464.5414	285.4483
464.7054	278.4393
464.8694	277.711
465.0334	281.2667
465.1975	287.6923
465.3615	297.9792
465.5255	297.9654
465.6895	286.4713
465.8535	297.2006
466.0175	301.7059
466.1815	307.4389
466.3455	305.7693
466.5095	282.7701
466.6734	282.4432
466.8374	269.6138
467.0014	277.5818
467.1653	300.3558
467.3293	302.0692
467.4932	298.068
467.6571	303.8187
467.8211	312.2061
467.985	301.7951
468.1489	297.0736
468.3128	295.1091
468.4767	301.0639
468.6406	310.8731
468.8045	305.5603
468.9684	306.5821
469.1323	300.9456
469.2962	301.2977
469.46	301.3003
469.6239	306.852
469.7878	303.2799
469.9516	291.9686
470.1154	289.0847
470.2793	283.812
470.4431	283.9579
470.607	292.246
470.7708	294.5705
470.9346	293.1709
471.0984	294.0743
471.2622	301.3473
471.426	295.0226
471.5898	298.4906
471.7536	313.4549
471.9174	317.6897
472.0811	323.1919
472.2449	323.1579
472.4087	321.7285
472.5724	327.7883
472.7362	310.5215
472.8999	298.8655
473.0637	294.2422
473.2274	301.4121
473.3911	304.6361
473.5548	303.3078
473.7185	302.185
473.8822	311.2798
474.0459	316.5271
474.2096	321.1752
474.3733	319.9408
474.537	313.3227
474.7007	322.5197
474.8643	323.2565
475.028	315.3237
475.1917	317.8951
475.3553	309.333
475.519	305.251
475.6826	301.1373
475.8463	305.1048
476.0099	315.501
476.1735	304.647
476.3371	296.2339
476.5007	291.128
476.6643	299.7352
476.8279	303.5156
476.9915	304.0321
477.1551	312.0005
477.3187	317.6451
477.4823	318.2221
477.6458	324.6401
477.8094	323.454
477.9729	319.1622
478.1365	317.8533
478.3	313.0341
478.4636	304.1054
478.6271	295.9889
478.7906	305.9674
478.9541	310.0957
479.1176	314.3603
479.2812	309.5175
479.4447	320.2908
479.6082	335.0398
479.7716	321.3561
479.9351	314.4001
480.0986	314.2386
480.2621	307.2571
480.4255	314.7951
480.589	316.0155
480.7524	314.2616
480.9159	306.1747
481.0793	315.6654
481.2428	313.6932
481.4062	317.0206
481.5696	316.7654
481.733	321.5937
481.8964	320.4592
482.0598	320.3418
482.2232	314.9859
482.3866	308.9218
482.55	316.6939
482.7134	310.4387
482.8768	317.4877
483.0401	314.5916
483.2035	317.904
483.3668	306.4199
483.5302	307.6266
483.6935	319.1424
483.8568	320.3763
484.0202	306.3079
484.1835	302.7465
484.3468	312.3084
484.5101	314.6443
484.6734	316.7838
484.8367	326.1154
485	317.135
485.1633	312.8797
485.3266	312.8339
485.4899	299.7697
485.6531	285.7437
485.8164	273.9102
485.9796	253.4264
486.1429	233.019
486.3061	232.9611
486.4694	254.5595
486.6326	278.1472
486.7958	299.2421
486.959	305.941
487.1223	288.2419
487.2855	283.8718
487.4486	295.9019
487.6118	308.78
487.775	308.6858
487.9382	315.609
488.1014	323.2843
488.2646	320.8496
488.4277	312.2606
488.5909	300.8186
488.754	297.4047
488.9171	296.7258
489.0803	293.9313
489.2434	301.4974
489.4066	318.3864
489.5697	323.3634
489.7328	331.0568
489.8959	336.8266
490.059	331.7617
490.2221	320.5217
490.3852	326.0456
490.5482	318.7059
490.7113	327.9456
490.8744	322.3601
491.0374	320.5534
491.2005	314.5882
491.3636	319.8555
491.5266	325.6231
491.6896	326.7583
491.8527	298.9539
492.0157	292.6774
492.1787	293.6051
492.3417	290.3994
492.5047	303.9664
492.6677	326.7384
492.8307	319.8067
492.9937	328.4171
493.1567	331.2578
493.3196	337.7717
493.4826	325.8818
493.6456	314.0565
493.8085	308.3656
493.9715	304.4775
494.1344	313.2683
494.2974	334.9754
494.4603	327.3875
494.6232	328.3616
494.7861	333.8789
494.949	331.8006
495.1119	338.6026
495.2748	339.963
495.4377	331.9602
495.6006	320.0267
495.7635	313.9592
495.9264	317.0263
496.0892	319.9444
496.2521	327.9077
496.4149	336.5483
496.5778	328.8075
496.7407	316.4223
496.9035	321.7454
497.0663	326.2717
497.2291	332.8388
497.3919	331.4193
497.5547	334.2622
497.7176	340.6867
497.8804	334.1562
498.0432	321.164
498.2059	304.3936
498.3687	300.574
498.5315	296.6196
498.6942	308.3937
498.857	316.3786
499.0198	325.4767
499.1825	330.5654
499.3452	327.4319
499.508	325.4637
499.6707	341.9643
499.8334	328.8716
499.9962	329.6001
500.1589	326.1891
500.3216	323.427
500.4843	313.8156
500.6469	306.0805
500.8096	308.1995
500.9723	323.3688
501.135	329.1962
501.2976	315.0318
501.4603	308.9801
501.623	311.1752
501.7856	306.0703
501.9482	305.6664
502.1109	313.3099
502.2735	320.4804
502.4361	331.5703
502.5987	325.0008
502.7614	331.3536
502.924	326.8902
503.0865	332.745
503.2491	344.7537
503.4117	340.7021
503.5743	330.9251
503.7368	324.2795
503.8994	315.9122
504.062	306.7853
504.2245	311.1117
504.3871	315.4435
504.5496	333.4473
504.7121	341.8687
504.8746	338.6179
505.0372	333.5241
505.1997	322.2523
505.3622	330.0744
505.5247	340.3644
505.6872	344.5192
505.8497	351.636
506.0121	352.7841
506.1746	350.2777
506.3371	352.8083
506.4995	328.1173
506.662	327.0416
506.8244	333.4884
506.9869	336.0681
507.1493	337.1932
507.3117	342.5949
507.4742	343.9819
507.6366	338.2027
507.799	332.028
507.9614	325.69
508.1238	315.5984
508.2862	326.4993
508.4485	331.1568
508.6109	341.4094
508.7733	339.5746
508.9357	343.2466
509.098	344.6925
509.2604	346.1654
509.4227	343.6602
509.5851	335.4915
509.7474	322.9631
509.9097	318.7574
510.072	329.0313
510.2343	342.6802
510.3966	338.1461
510.5589	335.2903
510.7212	327.083
510.8835	333.6053
511.0458	334.0762
511.2081	333.587
511.3703	334.2617
511.5326	334.6319
511.6949	337.5889
511.8571	343.0272
512.0193	346.283
512.1816	338.8874
512.3438	326.5468
512.506	324.1631
512.6682	323.9472
512.8304	326.2309
512.9926	328.0027
513.1548	332.4313
513.317	334.3896
513.4792	323.3074
513.6414	314.6047
513.8035	320.2166
513.9657	308.9312
514.1279	308.8412
514.29	315.4085
514.4521	315.7266
514.6143	316.7245
514.7764	325.2326
514.9385	323.1539
515.1006	310.5552
515.2628	320.8058
515.4249	324.5074
515.587	317.5264
515.7491	322.456
515.9111	326.1223
516.0732	324.4817
516.2353	312.7174
516.3973	307.4591
516.5594	291.7625
516.7214	280.9868
516.8835	275.5086
517.0455	272.9806
517.2076	261.8634
517.3696	266.4962
517.5316	282.1664
517.6937	311.4737
517.8557	326.2126
518.0176	316.5735
518.1796	301.021
518.3416	274.0675
518.5036	264.3448
518.6656	284.5931
518.8275	307.2737
518.9895	316.9536
519.1514	313.8451
519.3134	311.0137
519.4753	309.278
519.6373	309.3204
519.7992	314.9492
519.9611	321.1538
520.123	317.5355
520.2849	323.7203
520.4468	319.8802
520.6087	312.2611
520.7706	317.1619
520.9325	304.2082
521.0944	322.1588
521.2562	335.0602
521.4181	330.6702
521.58	325.9899
521.7418	316.9988
521.9036	320.2637
522.0655	330.4446
522.2273	329.6562
522.3891	329.0517
522.551	320.6989
522.7128	305.8482
522.8746	303.2322
523.0363	317.8748
523.1981	320.7846
523.3599	323.8859
523.5217	325.0379
523.6835	324.7114
523.8452	334.4755
524.007	344.8334
524.1687	344.2105
524.3304	345.1184
524.4922	343.261
524.6539	337.4597
524.8157	343.4802
524.9774	340.5804
525.1391	332.1655
525.3008	328.0699
525.4625	337.6673
525.6241	340.532
525.7858	348.6455
525.9475	342.6323
526.1092	340.3564
526.2709	321.9579
526.4325	309.0549
526.5942	300.3688
526.7558	297.0364
526.9174	298.9715
527.079	296.8
527.2407	298.2763
527.4023	311.0568
527.5639	322.3728
527.7255	331.1834
527.8871	333.6683
528.0487	340.3751
528.2103	332.3962
528.3718	339.7917
528.5334	337.8953
528.695	339.7555
528.8565	349.5703
529.0181	362.6395
529.1796	362.5558
529.3412	361.5937
529.5027	347.4991
529.6642	343.1562
529.8257	337.9913
529.9872	332.5697
530.1487	335.13
530.3102	340.5514
530.4717	342.2608
530.6332	347.1041
530.7947	346.5831
530.9562	350.3792
531.1176	345.4906
531.2791	342.4476
531.4405	340.0772
531.6019	344.6137
531.7634	342.0254
531.9248	345.9478
532.0862	338.5113
532.2477	332.5919
532.4091	328.6575
532.5704	322.9414
532.7319	306.3751
532.8932	305.752
533.0546	310.3712
533.216	325.8624
533.3774	338.1351
533.5388	333.4883
533.7001	335.5923
533.8615	329.2095
534.0228	329.3474
534.1841	330.1072
534.3455	326.5169
534.5068	328.6094
534.6681	328.9712
534.8293	328.8303
534.9907	330.2444
535.152	330.1488
535.3132	339.2249
535.4745	340.5735
535.6358	337.5801
535.7971	345.5734
535.9583	348.8757
536.1196	345.7841
536.2808	336.4254
536.4421	328.9909
536.6033	325.1223
536.7645	318.4329
536.9258	308.5394
537.087	309.578
537.2482	310.2704
537.4094	316.2194
537.5706	331.6893
537.7318	332.5944
537.8929	326.5718
538.0541	319.1005
538.2153	319.4164
538.3764	326.759
538.5376	325.3822
538.6987	332.8054
538.8599	332.8838
539.021	324.6382
539.1821	322.8284
539.3432	319.6628
539.5043	314.7413
539.6655	308.0459
539.8265	303.2622
539.9876	302.6577
540.1487	313.1523
540.3098	313.4215
540.4708	298.5442
540.6319	298.2528
540.793	297.3875
540.954	308.2578
541.1151	305.65
541.2761	305.4402
541.4371	312.7386
541.5981	314.6776
541.7592	318.5713
541.9202	324.786
542.0812	321.5997
542.2422	324.1772
542.4031	316.3904
542.5641	315.7183
542.7251	319.0884
542.886	315.682
543.0471	310.7009
543.208	312.6673
543.369	307.7185
543.5298	309.0537
543.6908	314.2294
543.8517	318.9537
544.0126	321.2424
544.1736	329.1357
544.3345	316.7715
544.4954	308.8975
544.6563	306.353
544.8171	309.8559
544.978	318.4451
545.1389	322.959
545.2997	322.3756
545.4606	318.2432
545.6215	310.0887
545.7823	307.6757
545.9432	321.2091
546.104	327.903
546.2648	320.2177
546.4256	315.5412
546.5864	322.1296
546.7473	320.5456
546.908	320.7683
547.0688	316.6329
547.2296	319.7833
547.3904	314.9695
547.5511	317.4136
547.7119	312.4703
547.8727	308.409
548.0334	306.6772
548.1942	310.5804
548.3549	319.1475
548.5156	319.4852
548.6763	316.2795
548.837	318.1516
548.9977	322.8416
549.1584	313.8694
549.3192	319.6131
549.4798	315.91
549.6405	321.477
549.8011	318.7844
549.9619	322.2235
550.1225	327.4004
550.2831	322.7088
550.4438	312.3507
550.6044	311.1622
550.765	315.0988
550.9257	311.7508
551.0863	320.9032
551.2469	316.9313
551.4075	312.1193
551.5681	314.9317
551.7287	323.0901
551.8893	325.9978
552.0498	324.3144
552.2104	327.8976
552.371	321.8787
552.5315	316.6846
552.6921	313.5356
552.8526	311.0489
553.0131	312.9109
553.1736	313.9092
553.3342	316.2906
553.4947	311.8545
553.6552	312.96
553.8157	311.8076
553.9762	318.3784
554.1367	308.0272
554.2971	312.6543
554.4576	324.0867
554.618	312.2932
554.7785	317.6613
554.939	324.7356
555.0994	313.2523
555.2598	308.0503
555.4203	311.8443
555.5807	305.2789
555.7411	304.6964
555.9015	303.9035
556.0619	306.1354
556.2223	308.9589
556.3827	308.4504
556.5431	302.6766
556.7034	301.5358
556.8638	307.2261
557.0242	302.577
557.1845	299.0387
557.3448	299.216
557.5052	300.0035
557.6655	298.0298
557.8259	298.5336
557.9861	301.1517
558.1465	306.245
558.3068	305.1901
558.467	289.6141
558.6274	295.0032
558.7877	284.8102
558.9479	272.6323
559.1082	280.9287
559.2684	285.1665
559.4287	288.2372
559.5889	288.5443
559.7491	289.4644
559.9094	287.772
560.0696	284.5783
560.2299	284.9673
560.3901	284.0012
560.5502	290.731
560.7104	308.5523
560.8707	307.3606
561.0308	308.9795
561.191	307.5426
561.3511	301.0623
561.5114	286.832
561.6714	285.6824
561.8316	284.7235
561.9918	286.0225
562.1519	296.5107
562.312	290.782
562.4722	294.6754
562.6323	294.7862
562.7924	294.2001
562.9525	287.1561
563.1125	297.7925
563.2726	305.659
563.4327	295.7434
563.5928	292.0913
563.7528	287.2188
563.9129	287.5916
564.0729	294.4314
564.233	288.257
564.393	293.2388
564.553	282.4698
564.7131	296.6545
564.873	293.724
565.0331	297.1942
565.1931	286.5391
565.353	287.1104
565.5131	279.8335
565.673	282.2993
565.833	288.7926
565.9929	275.8885
566.1529	273.8451
566.3129	282.0387
566.4728	282.6337
566.6328	278.1248
566.7927	276.4072
566.9526	284.0419
567.1125	289.8645
567.2724	289.812
567.4323	294.0948
567.5922	291.2234
567.7521	286.1664
567.9119	283.4023
568.0718	284.9763
568.2317	282.0653
568.3915	280.6217
568.5514	276.5406
568.7112	283.4005
568.871	279.3374
569.0309	283.1534
569.1907	283.2965
569.3505	277.8638
569.5103	274.71
569.6701	284.1757
569.8299	281.1904
569.9897	282.5888
570.1495	277.2224
570.3092	269.7426
570.469	284.015
570.6287	275.8366
570.7885	267.5486
570.9482	265.4804
571.108	264.5777
571.2677	261.3944
571.4274	277.17
571.5871	278.0989
571.7468	276.3027
571.9066	282.3596
572.0662	277.2646
572.2259	280.8039
572.3856	288.0938
572.5452	287.7197
572.7049	284.2067
572.8646	280.5509
573.0242	267.9833
573.1838	277.782
573.3435	288.6078
573.5031	288.0897
573.6627	279.8853
573.8223	277.0083
573.9819	278.9582
574.1415	279.339
574.3011	275.6278
574.4607	276.7865
574.6203	284.5629
574.7798	283.7046
574.9394	277.5989
575.099	282.5883
575.2585	277.0347
575.418	264.8236
575.5776	268.0439
575.7371	278.7276
575.8966	273.1791
576.0562	270.1385
576.2156	272.9578
576.3751	271.367
576.5346	274.8825
576.6941	275.7614
576.8536	277.5366
577.0131	276.7494
577.1725	274.4137
577.332	271.4983
577.4914	268.3463
577.6508	273.474
577.8103	275.6893
577.9697	263.0852
578.1291	266.473
578.2885	259.8462
578.4479	263.9565
578.6073	256.7811
578.7667	263.6825
578.9261	266.8507
579.0854	261.793
579.2448	270.633
579.4042	273.0593
579.5635	265.2426
579.7229	270.135
579.8822	267.2881
580.0416	267.7388
580.2009	265.3182
580.3602	269.5282
580.5195	271.4633
580.6788	260.1267
580.8381	262.1205
580.9974	269.9563
581.1566	268.7597
581.3159	263.456
581.4752	253.8624
581.6345	262.7465
581.7937	263.6265
581.9529	269.4545
582.1122	269.7492
582.2714	269.5519
582.4306	272.0704
582.5898	264.6171
582.749	269.1704
582.9082	266.6014
583.0674	252.3823
583.2266	264.6246
583.3857	264.2822
583.5449	259.0433
583.7041	258.873
583.8633	254.6499
584.0224	262.7678
584.1815	258.1626
584.3407	262.5188
584.4998	264.759
584.6589	258.5007
584.818	259.1664
584.9771	259.4692
585.1362	262.6977
585.2953	255.5851
585.4544	250.5707
585.6135	254.4942
585.7725	250.3131
585.9316	249.1
586.0906	251.1106
586.2497	255.0838
586.4087	255.7982
586.5677	255.2203
586.7267	255.6655
586.8858	246.8499
587.0448	252.1727
587.2038	250.5364
587.3628	252.087
587.5218	242.6574
587.6807	240.6055
587.8397	244.6736
587.9987	243.8142
588.1577	243.2671
588.3166	245.4766
588.4755	249.2046
588.6345	240.3351
588.7934	234.8964
588.9523	224.6477
589.1112	220.4464
589.2701	212.3266
589.429	222.7475
589.5879	223.7512
589.7468	223.2912
589.9056	220.0781
590.0645	229.2263
590.2234	227.1207
590.3822	230.6655
590.5411	241.1659
590.6999	242.374
590.8588	244.1687
591.0176	242.2337
591.1764	237.3407
591.3352	234.3233
591.494	231.4062
591.6528	233.5846
591.8116	234.4576
591.9703	231.2426
592.1291	228.6307
592.2878	228.4371
592.4467	237.5118
592.6053	240.9306
592.7641	231.9679
592.9229	228.7399
593.0816	231.2153
593.2403	226.817
593.399	233.4376
593.5577	237.8749
593.7164	237.7533
593.8751	240.0662
594.0338	233.9003
594.1924	235.0706
594.3511	237.4567
594.5098	228.4538
594.6684	225.9417
594.8271	233.5134
594.9857	238.2931
595.1443	231.6263
595.303	235.9213
595.4615	231.9317
595.6202	232.6098
595.7787	233.7265
595.9374	234.9522
596.0959	237.3397
596.2545	239.1362
596.4131	235.9107
596.5717	237.9005
596.7302	238.2508
596.8887	234.6465
597.0473	232.1989
597.2058	228.4566
597.3644	234.6809
597.5229	224.42
597.6814	229.6018
597.8399	230.4559
597.9984	232.7927
598.1569	230.6675
598.3154	233.5066
598.4738	233.4029
598.6323	235.3557
598.7908	226.1543
598.9492	225.1414
599.1076	230.7164
599.2661	230.7541
599.4245	230.267
599.5829	238.9985
599.7413	228.0703
599.8997	235.5377
600.0581	239.3052
600.2165	241.8981
600.3749	238.4486
600.5333	234.0039
600.6917	231.4815
600.85	224.8665
601.0084	231.872
601.1667	233.7709
601.325	233.814
601.4833	231.1703
601.6417	227.1196
601.8	224.92
601.9583	224.8584
602.1166	230.4881
602.2749	228.2829
602.4332	225.5461
602.5914	224.4898
602.7498	224.5249
602.908	227.1449
603.0662	225.7625
603.2245	228.2801
603.3828	236.7053
603.541	238.4432
603.6992	236.348
603.8574	236.5994
604.0156	240.6855
604.1738	233.1302
604.332	233.256
604.4902	231.6335
604.6484	229.0497
604.8065	228.9551
604.9647	229.6965
605.1229	227.9127
605.281	225.8584
605.4391	229.3747
605.5973	236.7085
605.7554	228.8741
605.9135	227.1216
606.0717	232.9661
606.2297	229.7276
606.3878	224.2818
606.5459	223.1752
606.704	226.6013
606.8621	238.3004
607.0201	233.3965
607.1782	226.8224
607.3362	230.0595
607.4943	233.9026
607.6523	235.8392
607.8104	228.9901
607.9684	224.4082
608.1264	224.766
608.2844	218.8562
608.4424	219.7491
608.6003	221.4502
608.7584	219.3058
608.9163	218.3463
609.0743	219.5685
609.2322	223.1484
609.3902	215.5508
609.5482	212.1666
609.7061	211.3974
609.864	218.8423
610.0219	221.4249
610.1798	216.3636
610.3377	217.5451
610.4956	221.3545
610.6535	222.8977
610.8114	217.924
610.9693	214.7946
611.1271	218.7754
611.285	221.5372
611.4429	221.7661
611.6007	222.1162
611.7585	220.9964
611.9164	223.1886
612.0742	217.3233
612.232	207.7693
612.3898	215.9369
612.5476	210.3397
612.7054	218.7018
612.8632	219.5151
613.0209	212.2023
613.1787	213.6027
613.3365	213.9155
613.4942	212.4434
613.652	210.7625
613.8097	207.1423
613.9674	204.8543
614.1252	213.09
614.2829	220.1977
614.4406	215.6281
614.5983	212.9004
614.756	212.7203
614.9136	211.5441
615.0714	202.3699
615.229	207.3504
615.3867	205.2053
615.5443	205.6236
615.702	203.7845
615.8596	202.6057
616.0172	205.4158
616.1748	198.9882
616.3325	202.5955
616.4901	206.6035
616.6476	210.3379
616.8052	210.4567
616.9628	208.412
617.1204	208.1485
617.278	201.3727
617.4355	198.0892
617.5931	206.469
617.7506	208.2549
617.9081	200.061
618.0657	196.254
618.2232	201.8061
618.3807	202.5333
618.5382	203.1366
618.6957	199.9753
618.8532	199.3555
619.0107	198.4194
619.1682	201.1417
619.3256	204.2486
619.4831	210.4907
619.6406	213.7318
619.798	203.6406
619.9554	210.7369
620.1129	207.4814
620.2703	200.7785
620.4277	205.7578
620.5851	209.394
620.7425	205.2751
620.8998	203.7775
621.0573	207.436
621.2146	205.8889
621.372	200.4593
621.5294	199.9109
621.6867	201.1444
621.8441	198.716
622.0013	195.2708
622.1587	198.7309
622.316	201.9019
622.4733	200.5059
622.6306	202.7773
622.7879	200.3778
622.9452	197.1658
623.1025	196.7091
623.2598	192.7134
623.4171	195.8459
623.5743	204.8929
623.7316	206.5167
623.8888	199.6902
624.046	201.3778
624.2032	198.9069
624.3605	194.7919
624.5176	198.0226
624.6749	191.8475
624.8321	197.0194
624.9893	198.944
625.1464	195.9522
625.3036	198.425
625.4608	190.538
625.6179	189.4212
625.7751	192.8878
625.9322	192.2091
626.0894	190.1488
626.2465	190.5519
626.4036	196.4978
626.5607	202.3544
626.7178	200.4431
626.8749	199.0823
627.032	198.6945
627.189	191.3804
627.3461	198.8521
627.5032	199.438
627.6602	193.2822
627.8173	186.942
627.9743	185.0277
628.1313	183.6608
628.2884	185.3777
628.4454	188.1886
628.6024	194.7538
628.7594	187.3262
628.9164	183.4456
629.0734	188.9099
629.2303	193.2996
629.3873	187.4175
629.5443	187.564
629.7012	188.3394
629.8582	184.4467
630.0151	187.0559
630.172	180.4711
630.3289	181.9298
630.4858	185.1642
630.6428	192.5606
630.7996	197.4632
630.9565	190.0001
631.1134	194.9171
631.2703	196.4196
631.4272	189.0997
631.584	189.0407
631.7408	185.1805
631.8977	186.5728
632.0546	183.2925
632.2114	187.1086
632.3682	191.5126
632.525	189.7472
632.6818	194.0185
632.8386	192.9244
632.9954	189.9435
633.1522	189.3122
633.3089	182.937
633.4657	185.7703
633.6224	185.613
633.7792	181.365
633.9359	181.8208
634.0927	187.8691
634.2494	194.1311
634.4061	189.1514
634.5628	188.6527
634.7195	192.0183
634.8762	188.3042
635.0329	185.85
635.1895	184.4851
635.3462	190.7966
635.5029	196.0043
635.6595	189.1331
635.8162	183.3891
635.9728	179.266
636.1295	179.4204
636.2861	181.8297
636.4427	174.8099
636.5992	176.788
636.7559	188.4659
636.9124	181.4277
637.069	180.3335
637.2256	191.299
637.3821	187.2795
637.5387	186.7058
637.6953	186.6537
637.8518	181.8705
638.0084	188.6451
638.1649	187.0774
638.3214	180.9215
638.4779	183.3582
638.6344	181.9285
638.7909	184.2382
638.9474	186.2434
639.1038	184.1354
639.2603	186.0745
639.4167	178.0761
639.5732	178.6954
639.7297	179.1487
639.8861	179.8813
640.0425	177.413
640.199	175.59
640.3553	182.3147
640.5118	180.8664
640.6682	183.0655
640.8245	182.0688
640.981	174.2384
641.1373	171.0586
641.2936	175.0615
641.45	182.5522
641.6064	182.4682
641.7627	175.952
641.9191	175.7553
642.0754	181.7421
642.2317	181.2786
642.388	178.2039
642.5443	176.346
642.7006	180.1227
642.8569	186.0956
643.0131	179.2574
643.1694	176.1113
643.3257	174.5145
643.4819	180.3445
643.6382	178.4184
643.7944	171.8289
643.9506	172.0697
644.1069	167.1607
644.2631	165.5155
644.4193	172.5898
644.5754	174.1729
644.7316	179.0456
644.8878	173.5826
645.044	165.6679
645.2002	163.5942
645.3563	170.8785
645.5125	170.5883
645.6686	166.5724
645.8248	168.8333
645.9809	167.2635
646.137	172.3603
646.2931	168.5139
646.4492	174.3247
646.6053	172.9266
646.7614	176.0014
646.9174	165.9977
647.0735	163.8058
647.2296	162.2291
647.3856	167.9662
647.5417	160.7659
647.6977	161.511
647.8537	163.7352
648.0098	166.9085
648.1658	162.4532
648.3218	161.0873
648.4777	163.0991
648.6337	163.9851
648.7897	171.0112
648.9457	163.8144
649.1016	156.5195
649.2576	162.8587
649.4135	161.9671
649.5695	159.0674
649.7254	156.2767
649.8813	158.5755
650.0372	161.7941
650.1932	162.6894
650.3491	159.4012
650.5049	165.1417
650.6608	165.5688
650.8167	162.316
650.9725	165.5703
651.1284	162.4245
651.2842	165.9557
651.4401	156.5714
651.5959	158.6292
651.7518	160.8524
651.9076	159.1169
652.0634	156.265
652.2192	156.089
652.3749	160.7336
652.5308	162.8634
652.6865	157.6957
652.8423	158.7912
652.998	160.4302
653.1538	160.2686
653.3096	160.8305
653.4653	162.767
653.621	161.7359
653.7767	161.8971
653.9324	160.6239
654.0881	166.8253
654.2438	162.5333
654.3995	157.7677
654.5552	148.7688
654.7109	153.3224
654.8665	157.8488
655.0222	156.7005
655.1778	157.4123
655.3334	153.6622
655.4891	148.4861
655.6447	154.8502
655.8003	153.8249
655.9559	143.5568
656.1115	137.7854
656.2671	134.2057
656.4227	126.8531
656.5782	126.6404
656.7338	137.2505
656.8893	145.8236
657.0449	145.3991
657.2004	150.2798
657.356	151.849
657.5115	152.3458
657.667	155.2803
657.8225	159.5478
657.978	158.9407
658.1335	154.349
658.289	154.9079
658.4445	152.627
658.5999	159.1424
658.7554	159.1329
658.9108	155.4207
659.0663	158.9578
659.2217	156.5818
659.3771	158.1394
659.5325	152.9706
659.6879	155.0641
659.8433	150.8253
659.9987	156.5617
660.1541	160.1404
660.3095	153.9165
660.4648	158.9783
660.6202	157.5824
660.7756	152.1085
660.9309	153.0824
661.0862	156.5832
661.2416	153.2056
661.3969	155.8956
661.5522	162.1079
661.7075	163.5136
661.8628	163.6922
662.0181	158.145
662.1733	156.9378
662.3286	152.7861
662.4839	157.3432
662.6391	153.9755
662.7944	158.8995
662.9496	153.1409
663.1048	152.6356
663.26	151.4136
663.4152	149.7676
663.5704	155.1153
663.7256	153.6186
663.8808	153.4677
664.036	161.6729
664.1912	157.0813
664.3463	154.8649
664.5015	154.3668
664.6566	154.5146
664.8118	154.3129
664.9669	149.3879
665.122	158.2065
665.2771	155.7277
665.4322	159.742
665.5873	156.5416
665.7424	160.3517
665.8975	157.6246
666.0526	151.1046
666.2076	161.3398
666.3627	153.0261
666.5177	153.2022
666.6727	159.8052
666.8278	156.9953
666.9828	154.1828
667.1378	154.8895
667.2928	151.7027
667.4478	150.6103
667.6028	152.407
667.7578	150.5609
667.9127	149.349
668.0677	150.606
668.2226	149.8492
668.3776	156.4573
668.5325	150.25
668.6874	152.6775
668.8423	155.5744
668.9973	156.2839
669.1522	155.6523
669.3071	151.273
669.4619	149.8405
669.6168	154.5424
669.7717	147.9774
669.9265	141.8679
670.0814	143.0576
670.2362	145.4769
670.3911	146.9983
670.5459	144.8095
670.7007	149.1396
670.8555	147.7261
671.0103	144.0376
671.1651	144.8754
671.3199	142.9421
671.4747	144.3971
671.6295	144.1449
671.7842	144.6832
671.939	146.4017
672.0937	147.126
672.2484	149.3395
672.4031	142.7178
672.5579	146.0409
672.7126	146.5276
672.8673	142.1555
673.022	145.4764
673.1767	147.2639
673.3314	140.0651
673.486	146.8502
673.6407	149.5578
673.7953	146.4813
673.95	148.1082
674.1046	147.0605
674.2592	142.356
674.4138	147.984
674.5684	144.4132
674.723	139.2823
674.8776	136.7746
675.0322	142.3118
675.1868	140.1366
675.3414	138.5025
675.4959	141.8814
675.6505	139.7572
675.805	148.2051
675.9595	144.4586
676.1141	148.3911
676.2686	147.2632
676.4231	143.1977
676.5776	147.0981
676.7321	143.3583
676.8866	142.8917
677.041	139.1636
677.1955	137.8259
677.35	134.6121
677.5044	138.0803
677.6589	140.7412
677.8133	140.7883
677.9677	138.0637
678.1221	135.6387
678.2766	133.6351
678.4309	141.8074
678.5853	139.4059
678.7397	136.3443
678.8941	133.477
679.0485	134.5974
679.2028	141.8263
679.3571	140.1759
679.5115	132.7923
679.6658	128.2348
679.8201	134.3889
679.9744	138.1103
680.1288	136.3089
680.2831	134.9683
680.4373	129.7357
680.5916	128.7535
680.7459	136.5412
680.9001	137.1955
681.0544	134.876
681.2087	139.0406
681.3629	134.5122
681.5171	133.3704
681.6713	135.1618
681.8256	134.1613
681.9797	131.9904
682.134	126.4718
682.2881	123.9328
682.4423	132.2207
682.5965	128.1285
682.7507	132.8793
682.9048	129.6826
683.059	128.7368
683.2131	126.5115
683.3672	131.5548
683.5213	133.7997
683.6754	130.1108
683.8295	127.845
683.9836	127.5435
684.1377	127.9624
684.2918	127.1659
684.4459	116.3785
684.5999	123.2727
684.754	125.7263
684.908	126.3866
685.062	124.6224
685.2161	129.6345
685.3701	125.6939
685.5241	126.0113
685.6781	126.4821
685.8321	128.429
685.9861	124.016
686.14	121.5633
686.294	131.7786
686.4479	124.6114
686.6019	115.8299
686.7559	107.2499
686.9098	102.8665
687.0637	96.07565
687.2176	93.3139
687.3715	92.09518
687.5254	101.0922
687.6793	104.9973
687.8332	106.8326
687.9871	109.3502
688.1409	114.1796
688.2947	110.0868
688.4486	115.317
688.6024	112.3401
688.7563	105.4297
688.9101	116.0286
689.0639	114.2718
689.2177	111.7499
689.3715	105.5758
689.5253	113.0121
689.6791	109.549
689.8328	114.765
689.9866	109.4123
690.1403	114.3346
690.2941	110.1372
690.4478	107.7723
690.6015	113.9097
690.7552	109.387
690.9089	111.5448
691.0626	107.0063
691.2164	111.7097
691.37	116.5719
691.5237	113.853
691.6774	107.85
691.831	110.6958
691.9847	109.2599
692.1383	112.9381
692.2919	107.6658
692.4456	113.8535
692.5992	111.9088
692.7527	106.2278
692.9064	109.5349
693.0599	110.1184
693.2136	108.1824
693.3671	112.7764
693.5207	112.7133
693.6742	113.1404
693.8278	113.8665
693.9813	110.3025
694.1348	109.3623
694.2883	105.1648
694.4418	108.9662
694.5953	108.3224
694.7488	108.7342
694.9023	106.7003
695.0558	111.1407
695.2093	106.8135
695.3627	116.3012
695.5162	108.2652
695.6696	112.2542
695.8231	109.7242
695.9764	108.1315
696.1299	104.9155
696.2833	109.898
696.4367	110.1418
696.5901	106.2675
696.7435	109.3057
696.8968	110.2252
697.0502	113.3612
697.2036	117.3956
697.3569	118.8559
697.5102	110.5644
697.6635	109.6147
697.8168	113.0121
697.9702	112.9078
698.1235	111.7511
698.2768	113.8452
698.4301	114.2316
698.5833	110.6159
698.7366	111.1316
698.8898	104.8935
699.0431	104.4002
699.1964	108.0126
699.3495	103.0314
699.5028	108.405
699.656	110.4581
699.8092	101.7032
699.9624	101.2879
700.1156	113.5826
700.2688	109.6786
700.4219	104.6241
700.5751	103.886
700.7283	105.5236
700.8814	104.2529
701.0345	106.6206
701.1877	105.6248
701.3408	106.6766
701.4939	105.1871
701.647	104.8822
701.8001	103.5093
701.9532	111.7523
702.1063	107.6646
702.2593	104.0825
702.4124	103.1283
702.5654	101.8857
702.7184	102.9543
702.8715	106.8893
703.0245	109.5807
703.1776	112.6484
703.3305	114.1421
703.4835	109.2573
703.6365	107.5012
703.7895	112.1548
703.9424	109.0111
704.0954	103.1286
704.2484	106.5797
704.4013	109.157
704.5543	112.4946
704.7072	110.3811
704.8601	110.8733
705.013	108.9363
705.1659	103.3816
705.3188	114.0077
705.4717	108.8101
705.6246	103.8872
705.7774	104.3158
705.9303	99.28353
706.0831	104.4663
706.236	111.0307
706.3888	109.333
706.5416	112.6803
706.6944	106.6037
706.8472	101.5301
707	106.3929
707.1528	105.103
707.3056	109.4958
707.4583	108.5827
707.6111	106.31
707.7639	111.8136
707.9166	108.5537
708.0693	102.3567
708.222	105.9969
708.3748	105.2394
708.5275	99.51086
708.6802	104.588
708.8328	105.1952
708.9855	106.4239
709.1382	104.2528
709.2909	106.8643
709.4435	107.1984
709.5962	99.3027
709.7488	96.18753
709.9014	104.4096
710.054	105.7373
710.2067	103.3587
710.3593	106.7756
710.5118	100.4375
710.6644	103.1741
710.817	102.9725
710.9695	96.48154
711.1221	105.9582
711.2747	106.1507
711.4272	102.5012
711.5797	100.8945
711.7322	100.8134
711.8848	102.3188
712.0373	100.2228
712.1898	110.8677
712.3422	104.6967
712.4948	100.1945
712.6472	100.4826
712.7996	109.4117
712.9521	107.6749
713.1046	100.5719
713.257	101.6716
713.4094	103.2555
713.5618	102.1083
713.7142	104.5049
713.8666	97.13668
714.019	99.36825
714.1714	100.9697
714.3237	99.25064
714.4761	99.0078
714.6285	95.57603
714.7808	100.3507
714.9331	100.1156
715.0854	99.08727
715.2378	99.76431
715.3901	102.139
715.5424	101.9788
715.6947	97.57011
715.8469	96.85993
715.9992	95.46409
716.1515	91.96568
716.3037	95.31324
716.456	93.89553
716.6082	90.45374
716.7604	90.20563
716.9127	90.27592
717.0649	88.71758
717.2171	86.17757
717.3693	88.75871
717.5214	86.90877
717.6736	79.38747
717.8258	83.78764
717.978	86.79974
718.1301	79.06538
718.2822	86.09311
718.4344	87.7339
718.5865	79.80399
718.7386	73.87896
718.8907	78.15779
719.0428	86.86269
719.1949	83.14381
719.3469	84.14032
719.499	80.69579
719.6511	83.49442
719.8031	80.15582
719.9551	80.93802
720.1072	80.98938
720.2592	81.50021
720.4112	79.77524
720.5632	76.25748
720.7152	85.84422
720.8672	87.4473
721.0192	88.6927
721.1711	91.16977
721.3231	94.14321
721.475	92.9232
721.627	93.22117
721.7789	87.93106
721.9308	89.74129
722.0828	93.69826
722.2347	91.37349
722.3866	89.11311
722.5385	93.79604
722.6903	87.30229
722.8422	89.8314
722.9941	91.01569
723.1459	87.61903
723.2977	80.82107
723.4496	79.38922
723.6014	79.27007
723.7532	83.64908
723.905	82.20455
724.0568	81.41266
724.2086	84.42822
724.3604	81.64861
724.5121	76.71793
724.6639	79.70769
724.8157	83.36969
724.9674	76.10414
725.1191	82.59071
725.2709	80.06742
725.4226	76.68121
725.5743	77.35654
725.726	79.22163
725.8777	83.33559
726.0294	85.2406
726.181	77.43375
726.3327	79.75397
726.4844	80.8325
726.636	81.3291
726.7877	83.26558
726.9393	78.54306
727.0909	80.18822
727.2425	86.21842
727.3941	84.26305
727.5457	80.1963
727.6973	77.60861
727.8488	77.55725
728.0004	76.87112
728.1519	78.02276
728.3035	84.81271
728.455	81.88517
728.6066	86.3046
728.7581	81.54814
728.9095	77.74251
729.0611	77.84354
729.2126	72.00054
729.364	81.55889
729.5155	80.19169
729.667	84.53933
729.8184	84.84714
729.9698	76.17416
730.1213	80.86176
730.2727	82.65759
730.4241	82.08353
730.5756	79.889
730.7269	81.16788
730.8784	81.49165
731.0297	78.08609
731.1811	79.06459
731.3325	82.96969
731.4838	87.11224
731.6351	81.11735
731.7865	79.99268
731.9378	77.87336
732.0891	78.01911
732.2404	77.69093
732.3917	86.8966
732.543	89.38136
732.6943	82.83645
732.8456	83.14712
732.9968	83.41642
733.1481	85.81582
733.2993	84.2346
733.4506	84.59961
733.6018	80.8166
733.753	87.67387
733.9042	87.95995
734.0554	90.74055
734.2066	91.22249
734.3578	83.73454
734.509	84.96085
734.6602	82.56928
734.8113	88.2981
734.9624	88.124
735.1136	84.26095
735.2647	74.10126
735.4158	82.73777
735.5669	85.35626
735.718	91.621
735.8691	85.99306
736.0201	81.86684
736.1713	80.41688
736.3223	78.25692
736.4733	78.33752
736.6244	80.32336
736.7755	79.59633
736.9265	87.29408
737.0775	81.29723
737.2285	82.219
737.3795	84.80426
737.5305	82.07782
737.6815	86.61482
737.8324	90.60473
737.9834	90.03208
738.1343	88.35938
738.2853	91.54907
738.4362	87.66581
738.5871	85.9062
738.738	84.64302
738.8889	82.7906
739.0399	83.47121
739.1907	79.14421
739.3416	84.97215
739.4925	82.34447
739.6433	85.37605
739.7942	86.40904
739.945	91.43597
740.0958	88.30132
740.2467	84.76134
740.3975	82.99268
740.5483	82.59389
740.6991	84.27128
740.8499	80.49204
741.0007	84.8812
741.1514	84.60429
741.3022	83.97425
741.4529	84.25081
741.6036	82.49375
741.7544	89.31429
741.9051	84.2594
742.0558	84.18014
742.2065	76.60258
742.3572	82.82849
742.5079	81.40472
742.6586	81.19505
742.8093	85.3214
742.9599	83.85686
743.1105	82.75484
743.2612	83.49061
743.4118	83.42577
743.5624	77.29294
743.7131	83.86215
743.8636	82.22565
744.0142	82.35147
744.1648	82.09332
744.3154	83.69872
744.4659	82.33082
744.6165	79.65929
744.767	78.64157
744.9176	78.65612
745.0681	76.77399
745.2186	78.1739
745.3691	79.35399
745.5197	80.81866
745.6702	82.2065
745.8206	75.71629
745.9711	82.11618
746.1215	78.40795
746.272	81.58399
746.4224	75.07848
746.5729	73.85696
746.7233	82.38937
746.8737	84.25656
747.0241	81.30006
747.1745	78.82076
747.3249	81.79303
747.4753	78.26958
747.6257	77.11655
747.776	79.87286
747.9264	76.1485
748.0767	81.03755
748.2271	77.68439
748.3774	82.65424
748.5276	82.15446
748.678	84.57311
748.8282	74.8009
748.9786	73.31344
749.1288	78.01495
749.2791	78.30637
749.4294	72.42134
749.5796	76.09315
749.7299	74.39326
749.8801	72.33269
750.0303	73.51817
750.1805	76.15599
750.3307	72.54529
750.4809	77.09621
750.6311	75.41888
750.7813	74.73518
750.9314	72.86474
751.0816	72.52754
751.2318	70.17436
751.3818	68.86002
751.532	71.41382
751.6821	78.07628
751.8322	82.65834
751.9823	75.60098
752.1324	76.19382
752.2825	73.80743
752.4326	74.22241
752.5826	72.73401
752.7327	78.21641
752.8827	75.58597
753.0327	74.41985
753.1827	71.37852
753.3328	68.77398
753.4828	65.21375
753.6328	70.87794
753.7828	76.69334
753.9327	75.47868
754.0827	70.58668
754.2327	75.17312
754.3826	71.18107
754.5325	70.17793
754.6825	72.5965
754.8324	75.34657
754.9823	74.30492
755.1322	73.14877
755.2821	72.31812
755.432	71.17981
755.5818	69.7053
755.7318	74.17224
755.8816	76.31223
756.0314	70.03613
756.1813	66.31663
756.3311	68.51331
756.4809	73.09308
756.6307	69.51889
756.7805	69.07807
756.9303	66.9642
757.0801	65.15005
757.2299	66.72657
757.3796	69.14111
757.5294	71.36927
757.6791	69.0008
757.8289	68.95373
757.9786	72.45532
758.1283	68.51151
758.278	67.2877
758.4277	68.77557
758.5773	67.52898
758.7271	66.29148
758.8767	69.81252
759.0264	68.9315
759.176	66.2701
759.3256	61.34711
759.4753	50.3564
759.6249	47.36702
759.7745	44.44711
759.9241	38.3855
760.0737	37.58743
760.2233	34.98355
760.3729	32.10049
760.5224	29.52438
760.6719	30.93384
760.8215	33.55664
760.971	34.92316
761.1205	33.12132
761.2701	30.57151
761.4196	38.17852
761.5691	44.16959
761.7186	48.89117
761.868	51.48657
762.0175	54.43318
762.167	53.4043
762.3164	44.89931
762.4659	42.34717
762.6153	38.67896
762.7647	44.60545
762.9141	40.637
763.0635	39.89169
763.2129	46.95702
763.3623	38.6354
763.5117	36.72005
763.661	42.96456
763.8104	42.32743
763.9597	44.1968
764.1091	50.38592
764.2584	47.53056
764.4077	45.68092
764.557	42.78322
764.7063	40.36695
764.8556	44.84714
765.0049	45.82827
765.1541	49.77389
765.3034	52.12199
765.4526	45.12564
765.6019	48.72097
765.7511	54.25483
765.9003	53.49075
766.0496	50.09705
766.1987	49.42191
766.348	47.64233
766.4971	49.83621
766.6463	51.26744
766.7955	59.53201
766.9446	57.27776
767.0938	55.37848
767.2429	57.53398
767.392	57.58623
767.5411	57.53787
767.6902	60.43306
767.8394	59.78123
767.9884	56.08177
768.1375	59.67772
768.2866	65.29054
768.4356	65.83759
768.5847	60.99664
768.7337	55.29385
768.8828	59.52128
769.0317	62.38786
769.1808	58.77057
769.3298	59.0473
769.4788	59.92825
769.6277	61.01931
769.7767	59.16536
769.9257	59.29634
770.0746	56.66285
770.2236	57.43691
770.3725	56.42464
770.5214	53.56735
770.6703	57.91446
770.8193	61.0408
770.9681	61.3881
771.1171	58.62741
771.2659	60.80828
771.4148	59.11961
771.5637	54.57813
771.7125	57.63348
771.8613	55.73681
772.0101	59.53664
772.159	57.77579
772.3078	57.24525
772.4566	56.65725
772.6054	54.67074
772.7542	55.84204
772.903	52.65251
773.0517	53.01181
773.2004	53.98096
773.3492	57.08311
773.4979	53.61102
773.6467	54.86619
773.7953	59.4135
773.944	52.4241
774.0928	57.91607
774.2415	59.8674
774.3901	55.87149
774.5388	52.3949
774.6874	54.37128
774.8361	57.89938
774.9847	54.76065
775.1334	54.02504
775.282	53.68948
775.4305	51.80141
775.5792	54.84911
775.7277	50.27989
775.8763	54.334
776.0249	54.19046
776.1735	54.85838
776.322	54.36706
776.4705	56.31977
776.6191	55.56412
776.7676	51.9795
776.9161	48.69671
777.0646	52.25302
777.2131	54.94526
777.3616	53.91703
777.5101	57.00494
777.6585	58.14537
777.8069	54.21817
777.9554	50.612
778.1038	53.86764
778.2523	56.4103
778.4007	54.70951
778.5491	53.73877
778.6974	55.15105
778.8459	57.69062
778.9942	56.80186
779.1426	51.76388
779.291	52.89239
779.4393	60.68991
779.5876	53.23847
779.736	52.37058
779.8843	52.50906
780.0326	55.57999
780.1809	55.34535
780.3292	54.42797
780.4775	54.55875
780.6257	52.79512
780.774	55.60728
780.9222	54.24423
781.0704	50.72808
781.2187	51.87175
781.3669	52.69891
781.5151	51.75468
781.6633	51.98732
781.8115	54.09816
781.9597	51.35406
782.1078	54.46821
782.256	49.11413
782.4042	44.23721
782.5523	48.1396
782.7004	50.73677
782.8486	49.8188
782.9967	49.34369
783.1448	48.15585
783.2929	44.69613
783.441	46.70404
783.5891	52.18092
783.7371	53.67025
783.8851	52.56433
784.0332	47.64147
784.1812	48.61576
784.3293	48.73153
784.4773	50.42345
784.6253	46.41419
784.7733	51.6382
784.9213	48.95012
785.0692	48.67958
785.2172	48.52326
785.3652	51.68162
785.5131	46.51014
785.6611	46.21605
785.809	49.75845
785.9569	55.3591
786.1048	48.14062
786.2527	48.52237
786.4006	49.0894
786.5485	52.46
786.6964	50.73568
786.8442	39.95941
786.9921	48.2988
787.1399	48.78183
787.2877	47.88745
787.4355	48.10259
787.5833	51.63295
787.7311	48.24364
787.8789	51.176
788.0267	45.64677
788.1745	51.78919
788.3223	51.38869
788.47	48.13541
788.6177	49.48319
788.7654	49.85539
788.9132	45.07664
789.0609	45.0741
789.2086	46.91752
789.3563	49.56842
789.504	47.22451
789.6517	50.1245
789.7993	43.48523
789.947	48.32768
790.0946	49.36989
790.2422	47.88044
790.3898	48.5405
790.5375	49.21842
790.6851	46.85704
790.8326	46.7561
790.9802	50.15154
791.1278	47.35144
791.2754	46.38564
791.423	46.00039
791.5705	46.36892
791.718	42.50778
791.8655	45.40215
792.0131	39.58116
792.1606	47.30029
792.308	45.40432
792.4556	45.37683
792.603	46.48188
792.7505	46.12202
792.8979	44.19646
793.0454	44.82156
793.1928	44.59532
793.3403	44.4948
793.4877	48.56326
793.6351	46.37378
793.7825	41.18369
793.9299	47.70081
794.0772	43.86188
794.2246	44.29803
794.3719	42.86197
794.5193	42.18121
794.6666	45.07978
794.814	42.24697
794.9613	40.53559
795.1086	46.32947
795.2559	40.0698
795.4032	40.3661
795.5505	41.83002
795.6978	42.07954
795.845	43.13362
795.9922	45.30657
796.1395	44.10466
796.2867	40.70494
796.4339	44.27315
796.5811	43.23645
796.7283	42.1553
796.8755	48.66138
797.0227	45.86779
797.1699	44.52742
797.317	43.15868
797.4642	41.19515
797.6113	39.58567
797.7584	41.52203
797.9056	44.44321
798.0527	42.87635
798.1998	37.59164
798.3469	45.19676
798.494	42.49585
798.641	43.73248
798.7881	43.46274
798.9351	43.14084
799.0822	38.93444
799.2292	39.31483
799.3762	47.18854
799.5232	46.57647
799.6702	44.36554
799.8172	42.19209
799.9642	38.93978
800.1111	43.52518
800.2581	40.80404
800.4051	42.3028
800.552	43.4501
800.6989	43.8325
800.8458	43.07948
800.9927	45.67732
801.1396	36.72644
801.2866	34.74107
801.4334	39.61966
801.5803	43.60556
801.7272	40.84093
801.874	38.03779
802.0209	39.44701
802.1677	39.15083
802.3145	39.17974
802.4613	38.8828
802.6081	39.06947
802.7549	41.8352
802.9017	40.41717
803.0485	37.62722
803.1952	39.25951
803.342	40.74852
803.4887	40.71701
803.6354	40.69033
803.7822	40.50591
803.9289	40.03596
804.0756	39.58246
804.2223	40.10832
804.369	33.69804
804.5156	40.31253
804.6623	39.18752
804.8089	38.10575
804.9556	42.70183
805.1022	39.46307
805.2488	38.98957
805.3954	40.65157
805.542	40.60786
805.6886	36.73262
805.8352	35.71232
805.9818	36.80568
806.1283	41.33112
806.2749	41.77095
806.4214	41.17935
806.5679	42.97625
806.7145	36.88015
806.861	36.85704
807.0074	33.37606
807.154	35.45655
807.3004	39.70633
807.4469	35.99084
807.5934	37.596
807.7398	37.13684
807.8862	36.60968
808.0327	38.34749
808.1791	38.02967
808.3255	37.5299
808.4719	34.87682
808.6183	34.75875
808.7647	35.7485
808.9111	37.06724
809.0574	37.01412
809.2037	36.73579
809.3501	39.37479
809.4965	38.95216
809.6428	35.81212
809.7891	31.99962
809.9354	29.62372
810.0817	36.23984
810.2279	35.75239
810.3742	39.68067
810.5204	34.50307
810.6667	32.36126
810.8129	36.96507
810.9592	32.69866
811.1054	32.80669
811.2516	34.39964
811.3978	37.57246
811.5439	36.64776
811.6901	37.12329
811.8363	36.11546
811.9825	31.63269
812.1286	31.35159
812.2748	34.16595
812.4209	29.01469
812.567	32.93939
812.7131	33.87668
812.8592	30.14021
813.0053	34.23405
813.1514	32.77506
813.2974	33.28165
813.4435	27.91925
813.5895	27.44802
813.7356	34.88028
813.8816	34.06363
814.0276	31.63682
814.1736	33.24714
814.3196	31.15327
814.4656	30.20094
814.6116	27.5161
814.7576	28.88612
814.9035	35.20847
815.0494	32.76236
815.1954	35.14016
815.3413	29.96973
815.4872	33.91359
815.6331	28.73856
815.779	28.98892
815.9249	28.61098
816.0707	27.98121
816.2166	27.09441
816.3625	28.20729
816.5083	28.89248
816.6542	26.53591
816.8	29.97178
816.9458	29.6399
817.0916	29.99749
817.2374	30.98186
817.3832	30.82833
817.5289	29.89204
817.6747	29.20816
817.8204	29.36407
817.9662	27.60839
818.1119	27.90098
818.2576	28.36593
818.4034	26.12119
818.5491	27.97223
818.6948	27.85124
818.8405	26.2773
818.9861	27.42958
819.1318	30.48663
819.2774	27.66607
819.423	24.96113
819.5687	26.34444
819.7143	29.47806
819.8599	23.32938
820.0055	25.41487
820.1511	33.01713
820.2967	31.20535
820.4422	32.08839
820.5878	23.41273
820.7333	32.29219
820.8788	23.26042
821.0244	24.76696
821.1699	27.36384
821.3154	30.46431
821.4609	28.45139
821.6064	31.42061
821.7519	30.19432
821.8973	30.5651
822.0428	29.13866
822.1882	27.59934
822.3337	28.03427
822.4791	23.17863
822.6245	25.39477
822.7699	23.66884
822.9153	24.11032
823.0607	23.06774
823.2061	26.25974
823.3514	26.87739
823.4968	26.52876
823.6422	24.66858
823.7875	27.08712
823.9328	29.6546
824.0781	28.82708
824.2234	29.94802
824.3687	30.83404
824.514	23.70918
824.6592	27.47228
824.8045	30.13897
824.9498	31.12619
825.095	31.04733
825.2402	30.52798
825.3854	29.34694
825.5306	29.26743
825.6758	24.23051
825.821	28.42643
825.9662	33.65393
826.1114	28.79989
826.2565	28.91452
826.4017	28.23938
826.5468	25.50904
826.692	29.70535
826.837	29.51351
826.9822	33.07822
827.1273	32.00251
827.2723	30.88347
827.4174	25.83168
827.5625	20.42342
827.7075	20.62261
827.8526	25.13039
827.9976	29.97049
828.1426	27.71799
828.2877	26.27269
828.4327	31.13853
828.5776	32.19285
828.7227	23.65469
828.8676	25.64014
829.0126	23.63263
829.1575	22.96246
829.3024	27.33797
829.4474	25.20318
829.5923	23.07033
829.7372	20.27832
829.8821	29.28842
830.027	28.29389
830.1719	28.71771
830.3168	27.58757
830.4616	28.04689
830.6064	30.76668
830.7513	31.8073
830.8961	31.22142
831.041	29.40202
831.1857	29.48428
831.3306	23.82517
831.4753	29.69263
831.6201	32.92104
831.7649	24.45715
831.9096	27.4573
832.0544	18.67236
832.1991	22.44659
832.3438	27.25763
832.4885	24.68158
832.6332	28.35435
832.778	26.83196
832.9226	22.73476
833.0673	26.01878
833.2119	25.02458
833.3566	21.00452
833.5012	25.0605
833.6459	27.38466
833.7905	25.8941
833.9351	28.98172
834.0797	27.04144
834.2243	27.85557
834.3688	27.08164
834.5134	25.8796
834.658	28.59226
834.8026	28.35189
834.9471	23.84456
835.0916	24.65567
835.2361	25.5949
835.3806	23.12978
835.5251	24.76904
835.6696	26.0941
835.8141	21.90826
835.9586	22.05009
836.103	22.41402
836.2474	22.89435
836.3918	26.35083
836.5363	23.78233
836.6807	22.4936
836.8251	27.27365
836.9695	25.56283
837.1138	28.21955
837.2582	30.39861
837.4026	27.72863
837.5469	28.38535
837.6913	25.69123
837.8356	24.16038
837.9799	24.40498
838.1242	19.81685
838.2686	27.81997
838.4128	23.31513
838.5571	21.37774
838.7014	25.75497
838.8456	27.63463
838.9899	21.84312
839.1341	27.29671
839.2783	27.23015
839.4225	25.03693
839.5667	25.48236
839.7109	22.08011
839.8551	22.71325
839.9993	25.74713
840.1434	24.68385
840.2876	27.57472
840.4317	26.39763
840.5759	27.33273
840.72	29.18652
840.8641	25.13143
841.0082	25.80655
841.1523	19.88407
841.2963	23.14866
841.4404	21.18036
841.5845	22.85409
841.7285	25.23146
841.8726	22.07221
842.0165	25.76813
842.1606	24.87976
842.3046	27.68576
842.4485	28.72915
842.5925	23.09584
842.7365	23.24847
842.8805	25.94983
843.0244	27.47055
843.1684	23.45899
843.3123	29.12207
843.4562	25.43018
843.6002	28.43327
843.744	23.14898
843.8879	21.74714
844.0318	24.02628
844.1757	21.92552
844.3195	25.74996
844.4634	21.94941
844.6072	22.25668
844.751	21.73974
844.8948	22.26688
845.0386	24.8758
845.1824	22.31966
845.3262	25.47227
845.47	20.22077
845.6138	24.59904
845.7575	23.96478
845.9012	21.98014
846.045	24.02217
846.1887	24.73276
846.3324	21.74462
846.4761	22.41496
846.6198	21.16317
846.7635	19.91526
846.9071	17.5374
847.0508	24.92087
847.1944	24.95844
847.3381	26.27842
847.4817	22.80613
847.6253	22.00797
847.7689	20.8165
847.9125	20.60218
848.0561	25.09559
848.1996	23.05262
848.3432	17.5075
848.4868	22.49796
848.6303	21.35148
848.7738	20.18651
848.9174	23.54898
849.0609	26.89514
849.2043	22.83311
849.3478	23.65355
849.4913	24.43383
849.6348	20.65911
849.7782	22.95901
849.9217	22.3838
850.0651	23.06969
850.2086	23.15419
850.3519	24.44083
850.4954	18.01655
850.6387	19.7547
850.7821	23.16079
850.9255	20.89461
851.0688	18.17
851.2122	26.79189
851.3555	25.86224
851.4988	20.68828
851.6422	23.34801
851.7855	19.59914
851.9288	24.15802
852.0721	27.79935
852.2153	22.48502
852.3586	19.488
852.5018	21.96201
852.6451	19.24108
852.7883	16.5319
852.9315	21.14238
853.0748	24.68029
853.218	20.81341
853.3611	24.84284
853.5043	18.84274
853.6475	20.57928
853.7906	27.7102
853.9338	23.74687
854.0769	20.35864
854.22	17.23875
854.3632	15.0018
854.5063	13.2634
854.6494	13.56843
854.7924	15.75783
854.9355	21.2936
855.0786	23.86557
855.2216	21.04726
855.3647	20.20498
855.5077	21.36477
855.6507	19.30353
855.7937	17.57261
855.9367	19.72469
856.0797	19.25484
856.2227	20.04738
856.3657	18.91391
856.5086	20.82386
856.6516	27.71052
856.7945	24.93329
856.9374	22.88318
857.0803	19.83337
857.2232	25.46235
857.3661	25.04539
857.509	16.72273
857.6519	13.49086
857.7947	19.92318
857.9376	23.55026
858.0804	23.90394
858.2232	20.35357
858.366	23.2012
858.5089	23.15387
858.6516	22.3817
858.7944	19.23923
858.9372	21.86563
859.08	21.42726
859.2227	14.99423
859.3654	19.44339
859.5082	20.91086
859.6509	22.08057
859.7936	22.18242
859.9363	20.18281
860.079	18.28214
860.2217	22.39508
860.3643	17.27602
860.507	20.43917
860.6496	22.27891
860.7922	20.25891
860.9349	18.67812
861.0775	22.96709
861.2201	18.8615
861.3627	21.70331
861.5052	18.27662
861.6478	17.2855
861.7904	18.97559
861.9329	19.82724
862.0755	18.71507
862.218	20.22413
862.3605	20.78782
862.503	22.90545
862.6455	19.96907
862.788	20.67844
862.9305	22.03258
863.0729	18.60702
863.2154	20.38076
863.3578	17.50805
863.5002	18.48135
863.6426	19.89535
863.7851	14.63112
863.9275	13.80672
864.0698	19.10852
864.2122	17.88266
864.3546	23.8298
864.4969	19.3094
864.6393	18.42791
864.7816	19.27023
864.924	19.06067
865.0662	21.77589
865.2086	19.58034
865.3508	17.03292
865.4931	18.12581
865.6354	20.41362
865.7776	17.01331
865.9199	14.24256
866.0621	17.63091
866.2043	17.20952
866.3466	19.04958
866.4888	15.05181
866.6309	15.26177
866.7731	14.82243
866.9153	17.87818
867.0574	16.12256
867.1996	17.98471
867.3417	19.08068
867.4839	22.67759
867.626	20.3469
867.7681	15.90162
867.9102	14.88504
868.0522	15.29689
868.1943	16.59819
868.3364	14.43082
868.4785	15.48508
868.6205	18.02997
868.7625	18.79427
868.9045	20.39658
869.0465	16.7222
869.1885	18.02287
869.3305	13.4464
869.4725	14.38992
869.6144	17.51676
869.7564	15.94172
869.8983	19.39135
870.0403	16.32633
870.1822	16.3605
870.3241	17.54239
870.466	16.22363
870.6079	14.21523
870.7498	14.46577
870.8916	19.75683
871.0335	14.52199
871.1754	15.33385
871.3171	17.20765
871.459	14.88698
871.6008	15.0271
871.7426	20.12197
871.8844	24.03057
872.0262	23.10882
872.1679	21.09112
872.3097	18.56622
872.4514	15.51967
872.5931	16.58838
872.7349	14.50628
872.8766	12.80933
873.0183	18.64377
873.16	17.03985
873.3017	16.36935
873.4434	17.73216
873.585	15.79141
873.7266	16.40901
873.8683	16.70734
874.0099	18.43258
874.1516	13.53686
874.2932	14.88348
874.4348	17.83289
874.5763	19.75975
874.7179	19.58758
874.8594	17.43824
875.001	15.79884
875.1425	19.03474
875.2841	17.55356
875.4256	16.65206
875.5671	15.37963
875.7086	17.1108
875.85	14.06226
875.9915	14.02819
876.133	16.59034
876.2744	17.94666
876.4159	18.82998
876.5573	17.89886
876.6987	19.98247
876.8401	16.41694
876.9815	18.72112
877.1229	16.88429
877.2643	12.87424
877.4056	13.19878
877.547	7.172887
877.6884	12.87754
877.8297	16.96472
877.971	17.65028
878.1123	19.51321
878.2536	16.05061
878.3949	14.54791
878.5362	14.20868
878.6774	9.96604
878.8187	11.27007
878.9599	15.48542
879.1011	11.95432
879.2424	9.9463
879.3836	13.55937
879.5248	15.31597
879.666	16.38586
879.8071	15.8002
879.9483	19.5235
880.0895	12.68188
880.2306	13.67847
880.3718	10.81423
880.5129	13.93718
880.654	11.47038
880.7951	16.57124
880.9362	17.75866
881.0773	17.23114
881.2183	13.71796
881.3594	15.43575
881.5004	16.20487
881.6414	12.55865
881.7825	15.2613
881.9235	16.34258
882.0645	15.07029
882.2054	17.75929
882.3464	15.17231
882.4874	14.28696
882.6284	13.96372
882.7693	11.89876
882.9103	16.6574
883.0512	15.59315
883.1921	15.45989
883.333	15.1448
883.4739	16.69256
883.6147	17.76848
883.7556	18.10841
883.8965	18.40098
884.0374	14.44431
884.1782	17.10175
884.319	12.50691
884.4598	11.64888
884.6006	16.05361
884.7414	13.98293
884.8822	13.00064
885.0229	17.34593
885.1637	12.54554
885.3044	15.34908
885.4452	11.19353
885.5859	16.77089
885.7266	16.48988
885.8673	17.9031
886.008	13.6784
886.1487	16.83465
886.2894	10.64555
886.43	14.46625
886.5707	15.41829
886.7113	10.24355
886.8519	14.86464
886.9926	13.39105
887.1331	12.02649
887.2737	17.49176
887.4143	17.18697
887.5549	13.09574
887.6954	12.61319
887.836	14.50994
887.9765	15.50756
888.1171	14.18636
888.2576	11.07094
888.3981	8.224558
888.5386	11.29227
888.679	11.70748
888.8195	13.1541
888.96	14.06738
889.1004	11.57298
889.2408	14.47303
889.3813	14.06461
889.5217	14.4976
889.6621	15.74361
889.8025	14.19205
889.9429	10.79328
890.0833	13.36926
890.2236	13.03411
890.364	12.83353
890.5043	13.40437
890.6446	15.59196
890.7849	15.55729
890.9252	20.6144
891.0655	13.4913
891.2058	16.35214
891.3461	13.97608
891.4863	12.78067
891.6266	12.13023
891.7668	11.10499
891.907	13.04174
892.0472	15.72791
892.1874	17.1011
892.3276	15.48954
892.4678	9.557195
892.608	13.46543
892.7481	11.51424
892.8883	13.14017
893.0284	10.6306
893.1685	15.5682
893.3087	16.20953
893.4487	13.38965
893.5889	6.181962
893.7289	9.406252
893.869	10.72685
894.009	12.8162
894.1491	16.35313
894.2891	12.14668
894.4291	12.04008
894.5692	12.19797
894.7092	14.8584
894.8491	10.30572
894.9891	8.447374
895.1291	11.70572
895.269	12.74421
895.409	13.93118
895.549	12.80266
895.6888	14.63758
895.8288	14.0865
895.9687	11.18852
896.1086	8.482434
896.2484	9.24921
896.3883	7.349074
896.5281	8.204778
896.668	8.318923
896.8079	10.82883
896.9476	6.859659
897.0875	13.76656
897.2272	11.03276
897.3671	12.31637
897.5068	14.62985
897.6466	8.553595
897.7864	13.3458
897.9261	15.68963
898.0658	12.44949
898.2056	5.995245
898.3453	8.672218
898.4849	11.44616
898.6246	12.88228
898.7643	12.40414
898.904	6.484249
899.0436	7.646551
899.1833	13.42737
899.3229	14.15042
899.4625	11.01283
899.6021	12.02473
899.7417	10.43994
899.8813	11.09266
900.0209	12.68274
900.1605	9.316246
900.3	5.653321
900.4395	1.196601
900.579	9.241883
900.7186	12.82045
900.8581	10.03879
900.9976	9.402097
901.1371	11.2901
901.2766	10.10271
901.416	8.019922
901.5555	10.1052
901.6949	14.21232
901.8344	14.01061
901.9738	11.32466
902.1132	8.995481
902.2526	11.55207
902.3919	6.475296
902.5313	9.793685
902.6707	9.060964
