SPECTRUM DATA FILE
SpectrumCount:	1
PixelCount:	3648
UserName:	ToughBook User
SampleName:	
LightSource:	
Comments:	
DeviceName:	Qwave
DeviceManufacturer:	Broadcom
DeviceSerialNo:	11311

Name:	last spectrum
Date:	2024-05-02T15:23:01.8234235+02:00
ExposureTime:	0.02
TemporalAvg:	1
IntensityUnit:	normalizedCounts
CCDLoadLevel:	0.07213262
Temperature:	29.98056
DiagramColor:	200
ProcessingSteps:	335

Wavelength [nm]	Intensity1
334.421	18.30792
334.5891	20.13192
334.7573	17.54838
334.9254	20.64529
335.0935	20.68727
335.2616	18.67818
335.4297	25.24268
335.5978	23.89232
335.7659	19.42982
335.934	14.28727
336.1021	14.88367
336.2701	15.76232
336.4382	12.91479
336.6063	16.40755
336.7744	18.10966
336.9424	15.09289
337.1105	14.10293
337.2785	16.55149
337.4466	21.88232
337.6146	17.47994
337.7827	18.38543
337.9507	19.38614
338.1187	16.96903
338.2867	16.40576
338.4548	15.85083
338.6228	19.30514
338.7908	24.19239
338.9588	20.05005
339.1268	17.46533
339.2948	19.45889
339.4628	20.39593
339.6308	19.00662
339.7988	19.82272
339.9667	17.97248
340.1347	21.39118
340.3027	22.53961
340.4707	19.9656
340.6386	18.43893
340.8066	19.98347
340.9745	19.87014
341.1425	19.05694
341.3104	17.26996
341.4784	17.94683
341.6463	21.15137
341.8142	23.17797
341.9821	20.98931
342.1501	22.18233
342.318	20.90356
342.4859	19.09554
342.6538	20.39102
342.8217	18.99027
342.9896	21.93949
343.1575	23.56117
343.3254	19.71495
343.4933	21.06305
343.6612	21.90987
343.829	16.95381
343.9969	20.86243
344.1648	23.17684
344.3326	15.81999
344.5005	16.77021
344.6683	19.307
344.8362	21.44926
345.004	21.97952
345.1719	26.57011
345.3397	23.48466
345.5075	20.10854
345.6754	22.51479
345.8432	24.27552
346.011	25.45758
346.1788	23.20367
346.3466	23.22078
346.5144	19.73885
346.6822	19.56859
346.85	25.39321
347.0178	21.15594
347.1856	18.51354
347.3534	18.78786
347.5211	23.44561
347.6889	20.92141
347.8567	21.74432
348.0244	18.71352
348.1922	20.44754
348.3599	20.82021
348.5277	19.78197
348.6954	19.34697
348.8632	21.64484
349.0309	18.01268
349.1986	21.83054
349.3663	18.9339
349.5341	17.88834
349.7018	20.22354
349.8695	22.84948
350.0372	27.48007
350.2049	25.86694
350.3726	24.88099
350.5403	21.49547
350.7079	17.83555
350.8756	25.78926
351.0433	28.66351
351.211	20.90865
351.3786	23.64291
351.5463	21.86843
351.714	24.60571
351.8816	34.24426
352.0493	26.5605
352.2169	25.47916
352.3846	23.46784
352.5522	21.58453
352.7198	23.73034
352.8875	29.91795
353.0551	27.47941
353.2227	28.17546
353.3903	23.96106
353.5579	23.5384
353.7255	25.75498
353.8931	32.0694
354.0607	28.30713
354.2283	29.55111
354.3958	30.94896
354.5634	29.38861
354.731	31.86802
354.8986	29.89338
355.0661	29.56234
355.2337	29.8046
355.4012	33.25402
355.5688	27.94506
355.7363	28.0713
355.9039	24.64569
356.0714	29.34324
356.239	26.31105
356.4065	27.36446
356.574	20.41405
356.7415	22.52278
356.909	20.03544
357.0765	19.75593
357.244	25.94743
357.4115	24.01192
357.579	27.16481
357.7465	21.22647
357.914	26.91195
358.0815	27.30048
358.249	20.40204
358.4164	23.98551
358.5839	20.07731
358.7513	18.94886
358.9188	22.36201
359.0862	27.67676
359.2537	24.87071
359.4211	26.5377
359.5886	31.38794
359.756	32.37915
359.9234	32.42129
360.0909	28.41366
360.2583	27.88257
360.4257	25.88678
360.5931	25.81896
360.7605	20.7903
360.9279	28.04104
361.0953	25.86633
361.2627	29.32444
361.4301	31.39493
361.5974	32.10449
361.7648	23.81266
361.9322	24.30058
362.0995	26.79367
362.2669	32.14231
362.4343	34.06254
362.6016	30.71379
362.769	33.69169
362.9363	32.13218
363.1036	31.56779
363.271	33.59353
363.4383	27.42957
363.6056	31.97896
363.7729	35.19571
363.9402	31.36555
364.1075	37.34464
364.2748	32.88858
364.4421	31.69715
364.6094	33.22092
364.7767	32.48318
364.944	34.06793
365.1113	33.12545
365.2786	34.98978
365.4458	35.85682
365.6131	32.00451
365.7803	34.35129
365.9476	40.43739
366.1148	41.20233
366.2821	36.34815
366.4493	38.13493
366.6166	36.19931
366.7838	37.11346
366.951	36.64846
367.1182	36.39841
367.2855	40.75504
367.4527	44.08266
367.6199	37.65204
367.7871	38.72866
367.9543	36.39237
368.1215	39.78505
368.2886	40.669
368.4558	38.38602
368.623	35.30173
368.7902	37.71518
368.9573	34.5475
369.1245	40.31499
369.2917	45.81126
369.4588	41.14572
369.6259	35.50269
369.7931	42.62869
369.9602	44.28154
370.1274	44.89002
370.2945	40.36494
370.4616	35.54159
370.6287	34.08102
370.7958	36.60325
370.963	35.77186
371.1301	40.84421
371.2971	44.84707
371.4643	50.71745
371.6313	40.89522
371.7984	41.87763
371.9655	38.31006
372.1326	30.60215
372.2997	35.5176
372.4667	40.84591
372.6338	39.49957
372.8008	43.22462
372.9679	42.12562
373.1349	42.17508
373.3019	40.23788
373.469	37.37775
373.636	37.30444
373.803	33.09698
373.9701	42.86176
374.1371	40.18548
374.3041	43.12763
374.4711	37.69436
374.6381	29.77907
374.8051	32.78768
374.9721	36.61041
375.1391	42.55075
375.3061	44.56232
375.473	52.83477
375.64	49.83336
375.8069	41.11612
375.9739	42.44113
376.1409	38.46338
376.3078	39.64169
376.4748	40.22255
376.6417	39.58764
376.8087	39.20142
376.9756	48.27326
377.1425	51.50846
377.3094	48.44244
377.4763	51.58298
377.6432	52.33973
377.8102	56.57106
377.9771	56.25133
378.144	54.61343
378.3109	56.85421
378.4777	58.4179
378.6446	48.18509
378.8115	43.56118
378.9784	45.3102
379.1452	43.65191
379.3121	44.54376
379.4789	42.53365
379.6458	39.76015
379.8127	44.51312
379.9795	46.38272
380.1463	46.01367
380.3131	53.9299
380.48	56.16994
380.6468	50.90953
380.8136	51.90257
380.9804	48.02811
381.1472	55.00806
381.314	54.21634
381.4808	44.7011
381.6476	43.86692
381.8144	45.17822
381.9812	40.94369
382.148	40.71145
382.3147	37.53942
382.4815	39.54358
382.6483	35.13649
382.815	38.68745
382.9818	32.50212
383.1485	36.35511
383.3153	36.12608
383.482	35.94981
383.6487	31.87624
383.8155	33.48745
383.9822	37.60343
384.1489	44.11301
384.3156	48.13153
384.4823	53.78575
384.649	53.64648
384.8157	55.25256
384.9824	55.87995
385.1491	55.77098
385.3158	55.06856
385.4825	53.65501
385.6491	43.16795
385.8158	46.20609
385.9825	44.40219
386.1491	50.06149
386.3157	56.83538
386.4824	57.66655
386.649	54.32855
386.8157	50.69159
386.9823	53.08815
387.1489	50.24365
387.3156	48.72083
387.4821	52.00533
387.6488	52.47817
387.8154	52.2492
387.982	50.56797
388.1486	46.07798
388.3152	46.12868
388.4818	46.73397
388.6483	48.12624
388.8149	45.67834
388.9815	48.44996
389.148	56.888
389.3146	60.73914
389.4811	58.7477
389.6477	64.18601
389.8142	69.72252
389.9808	63.56903
390.1473	66.80744
390.3138	62.66165
390.4804	60.17465
390.6469	58.40348
390.8134	71.24102
390.9799	68.32738
391.1464	64.5189
391.3129	66.46405
391.4794	72.42236
391.6459	70.99299
391.8124	68.09892
391.9789	63.70704
392.1453	65.36658
392.3118	60.35241
392.4782	63.84642
392.6447	53.75206
392.8112	46.80481
392.9776	37.87749
393.144	27.40534
393.3105	29.88304
393.4769	29.29423
393.6433	34.90397
393.8098	46.58225
393.9762	47.84487
394.1426	50.08163
394.309	57.76846
394.4754	62.93076
394.6418	69.721
394.8082	72.20724
394.9746	76.18575
395.141	78.35649
395.3073	72.72945
395.4737	76.99592
395.64	77.03143
395.8064	77.37
395.9728	70.59177
396.1391	63.8271
396.3055	56.39874
396.4718	49.52139
396.6381	42.66661
396.8045	38.55476
396.9708	39.49628
397.1371	45.74128
397.3034	54.00451
397.4697	61.60896
397.636	67.01952
397.8023	78.54186
397.9686	85.33604
398.1349	90.86767
398.3012	89.4537
398.4675	88.49981
398.6337	89.54964
398.8	92.21629
398.9662	98.88132
399.1325	99.23714
399.2988	94.36406
399.465	99.5976
399.6313	96.53854
399.7975	98.13062
399.9637	100.0293
400.1299	98.43168
400.2961	102.5082
400.4624	94.47522
400.6286	98.34425
400.7948	100.0919
400.961	104.1105
401.1272	107.5608
401.2934	112.5746
401.4595	105.0584
401.6257	106.9347
401.7919	109.2077
401.9581	107.3316
402.1242	106.6067
402.2904	104.5912
402.4565	104.2918
402.6227	106.6093
402.7888	105.5397
402.955	105.4381
403.1211	103.8807
403.2872	104.4037
403.4533	102.2563
403.6194	103.537
403.7856	112.3116
403.9517	114.8913
404.1177	109.9732
404.2838	104.4065
404.4499	93.49576
404.616	99.83365
404.7821	106.8567
404.9482	106.3217
405.1142	111.0042
405.2803	112.0872
405.4464	108.1149
405.6124	109.3682
405.7784	106.8256
405.9445	104.2519
406.1105	112.6113
406.2766	106.9044
406.4426	103.3385
406.6086	108.4502
406.7746	109.0414
406.9406	111.2944
407.1066	112.1226
407.2726	114.8391
407.4386	118.6534
407.6046	116.3284
407.7706	111.4925
407.9366	115.4013
408.1025	122.1222
408.2685	124.0121
408.4344	124.0247
408.6004	127.7973
408.7664	126.0064
408.9323	127.8321
409.0983	130.0965
409.2642	138.5237
409.4301	131.1829
409.596	123.7859
409.762	119.5822
409.9279	106.6046
410.0938	105.1864
410.2597	104.1062
410.4256	113.4986
410.5915	118.2374
410.7574	123.0986
410.9232	130.6462
411.0891	124.9357
411.255	130.4826
411.4209	138.3158
411.5867	142.4451
411.7526	137.8119
411.9184	137.722
412.0843	128.9621
412.2501	134.2843
412.4159	136.9789
412.5818	138.4636
412.7476	139.6201
412.9134	134.9593
413.0792	130.6256
413.245	126.1271
413.4108	122.5349
413.5766	127.425
413.7424	135.6585
413.9082	140.6843
414.074	140.0414
414.2397	133.4163
414.4055	128.0547
414.5713	124.8983
414.737	137.361
414.9028	140.0262
415.0685	137.736
415.2343	134.7108
415.4	129.102
415.5658	128.3354
415.7315	131.9837
415.8972	135.1759
416.0629	146.8458
416.2286	147.3808
416.3943	147.1096
416.56	139.9792
416.7257	145.7191
416.8914	145.8586
417.0571	143.1312
417.2228	139.0101
417.3884	132.6882
417.5541	131.4107
417.7198	136.2977
417.8854	146.7399
418.0511	142.7442
418.2167	139.1291
418.3824	135.9638
418.548	136.655
418.7136	133.2723
418.8792	140.7749
419.0449	143.3417
419.2105	143.21
419.3761	145.9612
419.5417	140.9323
419.7073	141.7514
419.8729	133.8465
420.0385	130.4845
420.204	139.6955
420.3696	147.7401
420.5352	152.4158
420.7007	159.5093
420.8663	157.1369
421.0319	161.4011
421.1974	156.1228
421.3629	156.2227
421.5285	156.2011
421.694	149.0732
421.8595	157.6206
422.0251	166.3268
422.1906	158.1802
422.3561	150.9744
422.5216	133.7421
422.6871	127.4537
422.8526	137.4018
423.0181	146.5336
423.1835	160.6893
423.349	162.5663
423.5145	155.2205
423.68	148.7309
423.8454	150.8363
424.0109	160.4667
424.1763	161.3958
424.3418	161.4161
424.5072	163.6966
424.6726	156.7605
424.838	150.3653
425.0035	145.9778
425.1689	149.8108
425.3343	154.8604
425.4997	164.6034
425.6651	160.1869
425.8305	160.0277
425.9959	149.7632
426.1613	150.1471
426.3267	158.1624
426.492	163.2763
426.6574	172.9191
426.8228	172.1869
426.9881	149.5613
427.1534	138.0033
427.3188	135.9184
427.4841	151.1012
427.6495	154.8506
427.8148	160.3324
427.9801	167.7582
428.1454	160.9099
428.3107	162.09
428.476	156.34
428.6414	150.3882
428.8066	148.8745
428.9719	144.753
429.1372	144.9934
429.3025	154.0536
429.4678	157.5574
429.633	147.0948
429.7983	136.7721
429.9636	118.3526
430.1288	118.9433
430.294	119.0725
430.4593	122.5749
430.6245	124.549
430.7897	120.3606
430.955	115.6531
431.1202	119.9234
431.2854	130.1542
431.4506	147.261
431.6158	174.8828
431.781	186.6315
431.9462	196.8965
432.1114	191.8867
432.2766	171.8197
432.4417	152.0371
432.6069	146.7548
432.772	164.5709
432.9372	175.7516
433.1024	185.6833
433.2675	194.0145
433.4326	188.912
433.5977	188.6151
433.7629	173.4187
433.928	151.3929
434.0931	139.9586
434.2582	151.9591
434.4233	169.1391
434.5884	181.4202
434.7535	187.2932
434.9186	187.2559
435.0837	181.3413
435.2488	181.7847
435.4138	182.9309
435.5789	187.7271
435.744	192.8081
435.909	199.6764
436.0741	194.5756
436.2391	192.3492
436.4042	205.4628
436.5692	210.2243
436.7342	198.7388
436.8992	194.2581
437.0643	196.0196
437.2293	202.5435
437.3943	184.8679
437.5593	190.7612
437.7243	192.8533
437.8893	199.2463
438.0542	195.3647
438.2192	181.9104
438.3842	166.0103
438.5491	163.8853
438.7141	174.5601
438.8791	191.2434
439.044	188.0262
439.209	195.6071
439.3739	195.5515
439.5388	205.2169
439.7037	203.3155
439.8687	202.2577
440.0336	200.6122
440.1985	202.2818
440.3634	186.6615
440.5283	189.7654
440.6932	183.2976
440.8581	198.9165
441.0229	208.0737
441.1878	221.2363
441.3527	221.5092
441.5175	208.7564
441.6824	208.3103
441.8472	213.3013
442.0121	222.2208
442.1769	217.9603
442.3418	216.3251
442.5066	215.7496
442.6714	212.2039
442.8362	222.555
443.001	218.6394
443.1659	222.4255
443.3307	218.1776
443.4955	207.3339
443.6602	214.1544
443.825	224.0699
443.9898	231.482
444.1546	224.5918
444.3193	214.4241
444.4841	226.6034
444.6488	224.7538
444.8136	236.6609
444.9783	227.4181
445.1431	231.099
445.3078	223.7582
445.4725	211.4247
445.6372	206.5143
445.802	204.7597
445.9667	209.5478
446.1314	211.7981
446.2961	222.261
446.4608	229.0612
446.6255	224.6107
446.7901	227.6584
446.9548	228.1169
447.1195	228.5377
447.2841	232.9303
447.4488	245.9364
447.6134	247.174
447.7781	243.9008
447.9427	239.7322
448.1074	222.7942
448.272	228.2433
448.4366	233.2833
448.6012	242.8041
448.7658	244.9551
448.9305	243.738
449.095	242.4363
449.2596	242.3284
449.4242	244.5481
449.5888	239.5964
449.7534	249.4561
449.9179	253.9225
450.0825	256.4182
450.2471	257.2012
450.4116	266.8855
450.5762	271.7651
450.7407	265.6889
450.9052	261.8071
451.0698	261.823
451.2343	262.665
451.3988	262.3567
451.5633	260.2426
451.7278	260.5286
451.8923	261.2579
452.0568	266.135
452.2213	262.6326
452.3858	253.0132
452.5503	245.8051
452.7148	235.5312
452.8792	224.5467
453.0437	233.0338
453.2081	242.0891
453.3726	244.8916
453.537	247.1186
453.7015	249.0218
453.8659	260.4566
454.0303	266.3818
454.1947	261.2917
454.3592	268.8459
454.5236	267.6069
454.688	251.8594
454.8524	247.5486
455.0168	248.4443
455.1811	251.0082
455.3455	252.7829
455.5099	255.1378
455.6743	268.3833
455.8386	268.0904
456.003	269.3775
456.1673	276.7324
456.3317	276.2953
456.496	262.4025
456.6603	266.8514
456.8246	271.471
456.989	265.9089
457.1533	259.9615
457.3176	270.8082
457.4819	276.1149
457.6462	278.6979
457.8105	271.7679
457.9748	266.6884
458.1391	262.1298
458.3033	257.8638
458.4676	257.6479
458.6319	261.3205
458.7961	267.8174
458.9604	271.7432
459.1246	260.4011
459.2888	257.781
459.4531	261.5589
459.6173	262.2772
459.7815	266.8477
459.9457	261.8543
460.11	261.3174
460.2741	264.6347
460.4384	260.7766
460.6025	266.5271
460.7667	270.3013
460.9309	282.8168
461.0951	284.0062
461.2592	279.9536
461.4234	275.5356
461.5876	279.0167
461.7517	278.3369
461.9159	272.4783
462.08	269.8677
462.2441	274.1118
462.4082	273.5747
462.5724	280.4858
462.7365	277.5904
462.9006	282.1028
463.0647	278.0252
463.2288	276.727
463.3929	282.8728
463.557	281.1145
463.721	272.2542
463.8851	277.4673
464.0492	282.6648
464.2132	281.5287
464.3773	272.7647
464.5414	267.6356
464.7054	262.352
464.8694	265.9848
465.0334	270.0058
465.1975	277.5823
465.3615	281.44
465.5255	273.7726
465.6895	280.0364
465.8535	291.6299
466.0175	290.7465
466.1815	292.7318
466.3455	279.3766
466.5095	278.2793
466.6734	261.3368
466.8374	256.608
467.0014	264.893
467.1653	271.616
467.3293	284.5156
467.4932	286.5243
467.6571	284.2627
467.8211	283.0762
467.985	285.2523
468.1489	274.7715
468.3128	276.5658
468.4767	286.5858
468.6406	294.4505
468.8045	298.9225
468.9684	294.8919
469.1323	289.8137
469.2962	292.9009
469.46	292.5006
469.6239	287.2339
469.7878	285.2836
469.9516	281.232
470.1154	270.7192
470.2793	269.7475
470.4431	271.969
470.607	278.3599
470.7708	280.3098
470.9346	279.7473
471.0984	279.9977
471.2622	293.6974
471.426	293.4372
471.5898	293.9264
471.7536	298.3582
471.9174	310.3814
472.0811	306.5723
472.2449	305.8286
472.4087	306.8404
472.5724	306.1303
472.7362	293.5918
472.8999	278.4775
473.0637	273.1159
473.2274	284.2821
473.3911	296.0955
473.5548	300.4614
473.7185	292.3787
473.8822	294.2759
474.0459	298.6285
474.2096	299.874
474.3733	298.3992
474.537	300.4858
474.7007	309.6384
474.8643	302.0321
475.028	303.2962
475.1917	295.4216
475.3553	290.0425
475.519	290.6129
475.6826	290.8987
475.8463	293.5076
476.0099	296.4497
476.1735	299.3191
476.3371	284.497
476.5007	281.5531
476.6643	283.873
476.8279	283.1904
476.9915	291.0396
477.1551	298.0419
477.3187	302.1187
477.4823	301.0757
477.6458	307.6579
477.8094	304.8477
477.9729	301.7563
478.1365	298.0573
478.3	295.1239
478.4636	294.7907
478.6271	292.256
478.7906	293.42
478.9541	290.2729
479.1176	290.064
479.2812	298.297
479.4447	312.4444
479.6082	310.7661
479.7716	295.5569
479.9351	306.7563
480.0986	300.7687
480.2621	304.6876
480.4255	299.388
480.589	300.7185
480.7524	296.3127
480.9159	303.1727
481.0793	300.9839
481.2428	292.4026
481.4062	299.3974
481.5696	307.8562
481.733	308.4573
481.8964	302.6393
482.0598	302.7762
482.2232	305.1847
482.3866	298.4614
482.55	305.6146
482.7134	302.8211
482.8768	310.6189
483.0401	311.9966
483.2035	300.2725
483.3668	304.985
483.5302	298.0692
483.6935	295.6597
483.8568	291.9862
484.0202	294.0785
484.1835	291.7361
484.3468	298.8594
484.5101	300.453
484.6734	299.1871
484.8367	301.4322
485	297.3787
485.1633	296.52
485.3266	293.576
485.4899	285.6307
485.6531	274.8857
485.8164	258.0742
485.9796	242.075
486.1429	227.3656
486.3061	226.4239
486.4694	245.6422
486.6326	269.9495
486.7958	279.3229
486.959	278.5815
487.1223	272.3219
487.2855	272.1122
487.4486	270.1717
487.6118	283.8629
487.775	289.1383
487.9382	304.3422
488.1014	308.0026
488.2646	306.451
488.4277	299.3853
488.5909	293.3083
488.754	290.8899
488.9171	281.9908
489.0803	275.3706
489.2434	275.3365
489.4066	296.045
489.5697	317.2406
489.7328	325.444
489.8959	310.8625
490.059	313.6489
490.2221	310.9238
490.3852	311.6747
490.5482	310.1307
490.7113	309.5039
490.8744	303.8735
491.0374	296.1012
491.2005	296.3412
491.3636	304.0956
491.5266	306.7474
491.6896	306.222
491.8527	278.676
492.0157	267.7087
492.1787	273.9349
492.3417	285.1266
492.5047	290.4936
492.6677	294.4017
492.8307	306.3137
492.9937	312.5144
493.1567	310.6142
493.3196	297.8747
493.4826	297.1164
493.6456	307.0879
493.8085	296.1559
493.9715	292.1793
494.1344	295.8075
494.2974	305.6805
494.4603	307.3554
494.6232	306.4131
494.7861	318.5712
494.949	318.2558
495.1119	313.4819
495.2748	318.0851
495.4377	309.2747
495.6006	299.1128
495.7635	288.2837
495.9264	293.0151
496.0892	306.9592
496.2521	315.5939
496.4149	316.9031
496.5778	314.5872
496.7407	311.0425
496.9035	307.6137
497.0663	309.524
497.2291	313.2865
497.3919	317.8956
497.5547	320.7111
497.7176	315.4575
497.8804	310.3606
498.0432	295.9703
498.2059	289.7134
498.3687	280.4363
498.5315	276.9708
498.6942	299.0985
498.857	310.4557
499.0198	314.8266
499.1825	301.1721
499.3452	302.4145
499.508	307.9631
499.6707	314.23
499.8334	310.497
499.9962	307.3641
500.1589	301.2337
500.3216	300.9842
500.4843	297.4757
500.6469	294.6295
500.8096	296.3562
500.9723	301.8475
501.135	299.8232
501.2976	299.0392
501.4603	295.8305
501.623	289.349
501.7856	290.5214
501.9482	297.7086
502.1109	296.0658
502.2735	302.4013
502.4361	308.635
502.5987	303.8136
502.7614	299.2956
502.924	305.353
503.0865	311.8939
503.2491	321.7647
503.4117	320.5435
503.5743	315.2671
503.7368	311.3246
503.8994	302.0124
504.062	285.0215
504.2245	290.1597
504.3871	307.7789
504.5496	317.6309
504.7121	320.6082
504.8746	312.9073
505.0372	313.8685
505.1997	313.6281
505.3622	322.987
505.5247	329.1286
505.6872	322.1192
505.8497	327.3417
506.0121	331.2098
506.1746	333.7762
506.3371	321.349
506.4995	321.9944
506.662	317.8789
506.8244	319.301
506.9869	330.1905
507.1493	317.4766
507.3117	315.0851
507.4742	315.7652
507.6366	317.5512
507.799	312.0712
507.9614	309.1973
508.1238	292.5755
508.2862	294.0991
508.4485	311.704
508.6109	315.3339
508.7733	316.4634
508.9357	318.6947
509.098	317.3229
509.2604	336.0457
509.4227	325.6036
509.5851	315.1178
509.7474	312.9745
509.9097	296.4664
510.072	299.1561
510.2343	315.0386
510.3966	320.7595
510.5589	319.012
510.7212	314.7626
510.8835	304.8273
511.0458	308.9184
511.2081	312.5899
511.3703	316.4643
511.5326	319.6501
511.6949	321.6463
511.8571	330.0431
512.0193	328.1155
512.1816	313.0558
512.3438	305.7132
512.506	300.7879
512.6682	300.3452
512.8304	300.2325
512.9926	297.2863
513.1548	298.362
513.317	305.0823
513.4792	306.8115
513.6414	309.4345
513.8035	296.217
513.9657	287.9201
514.1279	295.8918
514.29	299.4968
514.4521	292.1214
514.6143	297.2046
514.7764	293.2379
514.9385	294.8289
515.1006	295.8791
515.2628	304.8109
515.4249	303.8544
515.587	301.6168
515.7491	299.0732
515.9111	303.1941
516.0732	313.1244
516.2353	310.5857
516.3973	294.2819
516.5594	276.0592
516.7214	257.0867
516.8835	252.4458
517.0455	246.512
517.2076	244.8265
517.3696	252.2108
517.5316	270.0423
517.6937	295.6165
517.8557	307.8792
518.0176	308.7173
518.1796	282.0211
518.3416	260.4768
518.5036	249.4586
518.6656	272.6684
518.8275	298.4432
518.9895	308.0956
519.1514	300.5692
519.3134	293.1806
519.4753	293.7445
519.6373	293.3257
519.7992	302.403
519.9611	307.8087
520.123	305.6423
520.2849	309.5817
520.4468	308.4222
520.6087	292.8936
520.7706	290.4577
520.9325	292.1475
521.0944	297.0753
521.2562	316.2084
521.4181	312.3786
521.58	306.2937
521.7418	300.9528
521.9036	302.0874
522.0655	306.5386
522.2273	320.2859
522.3891	301.7109
522.551	303.6011
522.7128	291.7448
522.8746	286.9817
523.0363	305.0628
523.1981	303.899
523.3599	303.4175
523.5217	298.5993
523.6835	305.106
523.8452	313.1245
524.007	325.1614
524.1687	329.2932
524.3304	313.9719
524.4922	313.0508
524.6539	321.5193
524.8157	317.9312
524.9774	312.5405
525.1391	314.39
525.3008	311.9942
525.4625	315.6216
525.6241	319.8056
525.7858	324.5526
525.9475	324.3803
526.1092	310.7267
526.2709	298.768
526.4325	287.5898
526.5942	277.706
526.7558	276.8651
526.9174	275.2729
527.079	279.3298
527.2407	283.2644
527.4023	295.1061
527.5639	303.0491
527.7255	310.0055
527.8871	320.0037
528.0487	319.184
528.2103	312.8427
528.3718	313.3743
528.5334	318.6971
528.695	318.1225
528.8565	331.4182
529.0181	337.3223
529.1796	335.7459
529.3412	338.4474
529.5027	322.2094
529.6642	315.5854
529.8257	317.5486
529.9872	308.5041
530.1487	308.4268
530.3102	319.1975
530.4717	327.3131
530.6332	327.6987
530.7947	330.9132
530.9562	331.45
531.1176	333.2608
531.2791	338.0002
531.4405	336.4225
531.6019	323.8596
531.7634	319.2062
531.9248	317.7079
532.0862	319.2742
532.2477	317.8823
532.4091	308.9814
532.5704	303.1945
532.7319	297.0187
532.8932	290.5916
533.0546	295.8057
533.216	305.7858
533.3774	321.3347
533.5388	321.2593
533.7001	320.1508
533.8615	315.196
534.0228	306.9268
534.1841	296.0055
534.3455	302.2697
534.5068	305.5486
534.6681	311.2254
534.8293	311.8999
534.9907	309.49
535.152	316.5742
535.3132	314.3955
535.4745	324.0264
535.6358	322.4753
535.7971	328.2661
535.9583	328.1484
536.1196	321.1516
536.2808	312.7366
536.4421	310.0763
536.6033	297.1763
536.7645	296.5956
536.9258	294.6852
537.087	288.8529
537.2482	295.2637
537.4094	303.347
537.5706	310.2946
537.7318	319.1279
537.8929	311.3525
538.0541	306.9552
538.2153	306.1628
538.3764	299.1101
538.5376	304.9285
538.6987	309.4377
538.8599	309.6445
539.021	306.7014
539.1821	296.9655
539.3432	298.3372
539.5043	300.5119
539.6655	289.9169
539.8265	291.1524
539.9876	294.894
540.1487	293.5235
540.3098	288.2867
540.4708	274.3092
540.6319	279.1768
540.793	281.247
540.954	291.2473
541.1151	288.9493
541.2761	281.2677
541.4371	287.209
541.5981	298.9555
541.7592	298.2211
541.9202	299.9884
542.0812	296.1971
542.2422	294.0482
542.4031	283.892
542.5641	288.5267
542.7251	295.9053
542.886	293.937
543.0471	295.6907
543.208	289.6791
543.369	291.9803
543.5298	292.0689
543.6908	292.2581
543.8517	293.9151
544.0126	299.406
544.1736	304.8924
544.3345	300.0696
544.4954	296.6521
544.6563	296.8298
544.8171	293.9588
544.978	305.191
545.1389	303.8707
545.2997	303.9104
545.4606	301.3384
545.6215	294.3394
545.7823	295.7084
545.9432	301.2477
546.104	300.8047
546.2648	291.4618
546.4256	296.8099
546.5864	294.6445
546.7473	294.8839
546.908	301.0442
547.0688	304.6858
547.2296	299.9696
547.3904	293.2049
547.5511	290.4567
547.7119	288.8956
547.8727	289.3202
548.0334	291.5957
548.1942	299.0352
548.3549	298.3102
548.5156	298.2207
548.6763	300.8396
548.837	304.8643
548.9977	295.0142
549.1584	294.5908
549.3192	305.1281
549.4798	302.7466
549.6405	298.8495
549.8011	295.8009
549.9619	293.1747
550.1225	293.1689
550.2831	294.0341
550.4438	298.8309
550.6044	293.0806
550.765	300.4401
550.9257	301.0582
551.0863	291.3419
551.2469	289.6976
551.4075	287.7666
551.5681	295.8326
551.7287	303.8038
551.8893	297.9411
552.0498	311.3927
552.2104	297.7214
552.371	298.2964
552.5315	306.6412
552.6921	296.4894
552.8526	291.5622
553.0131	292.8615
553.1736	294.3411
553.3342	294.1662
553.4947	304.9336
553.6552	295.0972
553.8157	293.804
553.9762	298.764
554.1367	292.908
554.2971	294.1845
554.4576	291.4136
554.618	301.0316
554.7785	300.0457
554.939	300.831
555.0994	299.4325
555.2598	298.2172
555.4203	303.714
555.5807	289.5696
555.7411	286.8884
555.9015	282.6477
556.0619	290.5182
556.2223	290.9274
556.3827	287.0469
556.5431	282.6938
556.7034	282.3329
556.8638	280.7594
557.0242	274.6753
557.1845	281.5953
557.3448	286.2427
557.5052	279.999
557.6655	280.3627
557.8259	285.1282
557.9861	285.4139
558.1465	285.8638
558.3068	280.3291
558.467	280.8206
558.6274	275.365
558.7877	266.2247
558.9479	261.777
559.1082	262.262
559.2684	269.3193
559.4287	274.3414
559.5889	271.6699
559.7491	270.1215
559.9094	274.5201
560.0696	268.0511
560.2299	262.6736
560.3901	267.1351
560.5502	276.4217
560.7104	286.983
560.8707	286.883
561.0308	293.6116
561.191	284.5829
561.3511	279.1446
561.5114	279.2705
561.6714	268.7298
561.8316	265.2617
561.9918	270.5943
562.1519	274.5062
562.312	272.4653
562.4722	275.3427
562.6323	266.7652
562.7924	268.5242
562.9525	277.1176
563.1125	277.4378
563.2726	282.1849
563.4327	282.5225
563.5928	272.6638
563.7528	271.4133
563.9129	279.277
564.0729	267.4422
564.233	269.3939
564.393	273.2133
564.553	274.6669
564.7131	277.6849
564.873	285.2149
565.0331	274.231
565.1931	270.7193
565.353	273.402
565.5131	269.7931
565.673	268.9495
565.833	262.1698
565.9929	262.7367
566.1529	262.05
566.3129	259.7892
566.4728	253.4461
566.6328	263.991
566.7927	268.1671
566.9526	264.89
567.1125	268.1976
567.2724	267.5771
567.4323	267.9949
567.5922	270.0471
567.7521	277.6194
567.9119	282.0067
568.0718	269.332
568.2317	265.6916
568.3915	264.6926
568.5514	261.9936
568.7112	258.2873
568.871	255.5325
569.0309	259.7327
569.1907	260.2894
569.3505	263.794
569.5103	266.5281
569.6701	266.3469
569.8299	266.3982
569.9897	259.143
570.1495	265.1355
570.3092	256.5771
570.469	258.9987
570.6287	253.1128
570.7885	256.5703
570.9482	247.9316
571.108	243.0617
571.2677	252.3749
571.4274	259.1951
571.5871	254.6717
571.7468	255.2897
571.9066	256.2254
572.0662	255.5375
572.2259	262.8054
572.3856	266.1584
572.5452	265.0163
572.7049	269.5928
572.8646	270.3757
573.0242	266.4134
573.1838	262.0904
573.3435	260.8786
573.5031	260.0608
573.6627	263.649
573.8223	270.5308
573.9819	261.3669
574.1415	258.6859
574.3011	266.763
574.4607	264.469
574.6203	260.3461
574.7798	255.5524
574.9394	254.9426
575.099	260.1288
575.2585	249.8155
575.418	249.736
575.5776	254.5798
575.7371	256.809
575.8966	258.935
576.0562	252.0191
576.2156	255.6008
576.3751	256.3499
576.5346	249.222
576.6941	258.8214
576.8536	257.5412
577.0131	256.8618
577.1725	252.4882
577.332	248.4846
577.4914	254.4572
577.6508	253.4215
577.8103	250.3784
577.9697	253.1033
578.1291	242.7681
578.2885	245.0044
578.4479	249.675
578.6073	245.6603
578.7667	248.8952
578.9261	252.185
579.0854	247.7554
579.2448	246.6719
579.4042	244.9505
579.5635	244.295
579.7229	251.9998
579.8822	246.8235
580.0416	249.2844
580.2009	245.2413
580.3602	246.1055
580.5195	249.1438
580.6788	243.982
580.8381	244.6228
580.9974	246.4147
581.1566	248.5167
581.3159	251.8262
581.4752	253.9693
581.6345	255.1935
581.7937	249.9093
581.9529	252.989
582.1122	252.2871
582.2714	256.9188
582.4306	255.9691
582.5898	244.6347
582.749	248.2811
582.9082	247.6176
583.0674	244.2955
583.2266	242.938
583.3857	244.1037
583.5449	248.9074
583.7041	246.2685
583.8633	249.6566
584.0224	241.7212
584.1815	243.524
584.3407	247.0567
584.4998	242.0133
584.6589	240.6317
584.818	243.2493
584.9771	240.0664
585.1362	247.2588
585.2953	248.0843
585.4544	237.9851
585.6135	226.1163
585.7725	231.6702
585.9316	234.2043
586.0906	233.7695
586.2497	240.6772
586.4087	236.9326
586.5677	237.2086
586.7267	238.3641
586.8858	234.7792
587.0448	234.5184
587.2038	242.4335
587.3628	237.3027
587.5218	242.1423
587.6807	240.5365
587.8397	232.0896
587.9987	227.6075
588.1577	229.0819
588.3166	226.2715
588.4755	225.6281
588.6345	220.2985
588.7934	217.9224
588.9523	212.4741
589.1112	207.6159
589.2701	201.4512
589.429	201.6239
589.5879	198.7663
589.7468	196.805
589.9056	205.4447
590.0645	211.7023
590.2234	217.7507
590.3822	227.0076
590.5411	225.2246
590.6999	227.3241
590.8588	216.8526
591.0176	212.3642
591.1764	227.3449
591.3352	216.0052
591.494	212.2481
591.6528	216.2099
591.8116	222.9116
591.9703	217.0839
592.1291	213.0796
592.2878	216.9593
592.4467	224.2491
592.6053	222.1319
592.7641	217.6517
592.9229	220.6162
593.0816	217.7875
593.2403	215.0382
593.399	217.8849
593.5577	223.0489
593.7164	223.528
593.8751	222.8931
594.0338	214.9031
594.1924	207.6844
594.3511	214.119
594.5098	219.5034
594.6684	214.4693
594.8271	213.4075
594.9857	213.0494
595.1443	223.7287
595.303	222.2638
595.4615	222.4392
595.6202	223.5993
595.7787	224.5733
595.9374	221.3782
596.0959	217.6667
596.2545	225.1397
596.4131	221.7112
596.5717	222.0776
596.7302	221.1785
596.8887	221.306
597.0473	212.8606
597.2058	218.1108
597.3644	223.6151
597.5229	222.4111
597.6814	221.984
597.8399	217.174
597.9984	213.0351
598.1569	220.947
598.3154	219.6729
598.4738	215.4747
598.6323	220.0156
598.7908	210.6853
598.9492	213.9233
599.1076	213.1253
599.2661	216.1929
599.4245	217.0146
599.5829	218.036
599.7413	216.855
599.8997	212.9955
600.0581	210.9619
600.2165	221.1625
600.3749	215.0724
600.5333	220.5873
600.6917	209.7588
600.85	212.2592
601.0084	216.1286
601.1667	214.7928
601.325	213.1464
601.4833	216.2941
601.6417	216.3003
601.8	217.5298
601.9583	213.5193
602.1166	212.2838
602.2749	210.5685
602.4332	208.3014
602.5914	214.423
602.7498	217.8065
602.908	206.9432
603.0662	215.3201
603.2245	221.4193
603.3828	221.7566
603.541	215.61
603.6992	211.4399
603.8574	221.1959
604.0156	214.3102
604.1738	219.4415
604.332	220.2393
604.4902	224.6881
604.6484	214.3626
604.8065	209.8922
604.9647	213.703
605.1229	213.3665
605.281	216.3268
605.4391	213.0712
605.5973	214.9963
605.7554	214.8581
605.9135	217.5473
606.0717	221.9369
606.2297	214.2629
606.3878	208.612
606.5459	212.8925
606.704	213.6938
606.8621	212.4255
607.0201	217.2009
607.1782	214.4175
607.3362	216.4591
607.4943	216.7806
607.6523	217.0455
607.8104	211.1569
607.9684	210.1404
608.1264	210.9889
608.2844	215.5177
608.4424	205.522
608.6003	202.2838
608.7584	211.5718
608.9163	207.6783
609.0743	206.0887
609.2322	208.1876
609.3902	201.19
609.5482	208.7948
609.7061	207.9626
609.864	207.5581
610.0219	206.1176
610.1798	201.4655
610.3377	200.2653
610.4956	200.5219
610.6535	203.1489
610.8114	205.5843
610.9693	203.2179
611.1271	201.0163
611.285	195.1989
611.4429	211.9083
611.6007	205.7771
611.7585	205.1568
611.9164	203.9063
612.0742	200.1951
612.232	200.0968
612.3898	194.4375
612.5476	192.2841
612.7054	197.0551
612.8632	201.3505
613.0209	201.2002
613.1787	201.2035
613.3365	201.7758
613.4942	197.5757
613.652	189.0536
613.8097	190.9565
613.9674	195.5711
614.1252	192.3058
614.2829	199.2302
614.4406	198.6782
614.5983	197.2328
614.756	196.46
614.9136	203.1502
615.0714	199.0673
615.229	202.1624
615.3867	200.4269
615.5443	201.7057
615.702	203.0977
615.8596	190.3005
616.0172	190.8147
616.1748	189.0445
616.3325	187.7273
616.4901	181.2718
616.6476	185.5232
616.8052	188.919
616.9628	190.1874
617.1204	189.3311
617.278	187.4596
617.4355	188.6546
617.5931	194.6543
617.7506	196.6006
617.9081	191.7769
618.0657	191.1176
618.2232	191.5651
618.3807	198.0853
618.5382	199.6089
618.6957	191.8912
618.8532	187.6589
619.0107	190.0447
619.1682	189.0062
619.3256	190.5905
619.4831	183.8941
619.6406	194.8009
619.798	189.1499
619.9554	187.7514
620.1129	196.5339
620.2703	187.4934
620.4277	191.5228
620.5851	188.2646
620.7425	191.157
620.8998	191.4886
621.0573	189.7256
621.2146	191.3305
621.372	188.5681
621.5294	188.9332
621.6867	182.7426
621.8441	175.0894
622.0013	182.8163
622.1587	186.043
622.316	179.8895
622.4733	188.3847
622.6306	186.2929
622.7879	181.8273
622.9452	181.0575
623.1025	182.315
623.2598	183.7871
623.4171	181.4601
623.5743	184.4595
623.7316	186.7834
623.8888	188.2616
624.046	183.5967
624.2032	187.5745
624.3605	186.8869
624.5176	179.2401
624.6749	180.272
624.8321	178.3927
624.9893	183.2461
625.1464	177.2381
625.3036	176.2018
625.4608	175.6118
625.6179	181.9763
625.7751	183.6462
625.9322	176.0937
626.0894	177.6349
626.2465	182.1976
626.4036	185.2442
626.5607	185.7763
626.7178	188.2633
626.8749	184.285
627.032	187.4497
627.189	186.1281
627.3461	184.0765
627.5032	176.9328
627.6602	173.8799
627.8173	172.954
627.9743	171.4109
628.1313	178.2578
628.2884	185.1676
628.4454	178.7209
628.6024	176.5865
628.7594	174.6481
628.9164	171.2239
629.0734	176.0069
629.2303	177.4066
629.3873	178.8881
629.5443	173.5676
629.7012	175.6439
629.8582	176.617
630.0151	172.5046
630.172	170.1124
630.3289	170.8461
630.4858	176.7168
630.6428	189.1996
630.7996	186.2472
630.9565	174.8049
631.1134	171.9155
631.2703	177.4468
631.4272	178.7804
631.584	177.2275
631.7408	168.7532
631.8977	173.4254
632.0546	173.4425
632.2114	173.369
632.3682	178.3452
632.525	178.9002
632.6818	177.3757
632.8386	173.3226
632.9954	179.1497
633.1522	175.7372
633.3089	176.4723
633.4657	175.8316
633.6224	167.6893
633.7792	162.1758
633.9359	168.7633
634.0927	171.5653
634.2494	175.2864
634.4061	174.1712
634.5628	171.1371
634.7195	178.6264
634.8762	173.7728
635.0329	175.2802
635.1895	176.4554
635.3462	177.0456
635.5029	174.5516
635.6595	170.4928
635.8162	178.0793
635.9728	170.3426
636.1295	170.5684
636.2861	169.5052
636.4427	165.8203
636.5992	169.6766
636.7559	175.3046
636.9124	175.3417
637.069	168.0171
637.2256	177.9825
637.3821	173.3298
637.5387	175.648
637.6953	173.1283
637.8518	173.8762
638.0084	169.9961
638.1649	176.6655
638.3214	175.2802
638.4779	173.1451
638.6344	171.8418
638.7909	169.2021
638.9474	171.2042
639.1038	176.1194
639.2603	173.3358
639.4167	173.3032
639.5732	170.9345
639.7297	165.0316
639.8861	169.08
640.0425	169.4239
640.199	160.1724
640.3553	160.4893
640.5118	165.3506
640.6682	161.933
640.8245	164.0681
640.981	167.28
641.1373	169.9607
641.2936	168.3463
641.45	164.1874
641.6064	160.2894
641.7627	165.9364
641.9191	164.1775
642.0754	166.2408
642.2317	160.7513
642.388	157.1137
642.5443	161.4808
642.7006	167.1188
642.8569	168.4092
643.0131	161.307
643.1694	156.7892
643.3257	159.0106
643.4819	162.7591
643.6382	161.2862
643.7944	159.905
643.9506	160.7826
644.1069	160.2319
644.2631	165.049
644.4193	164.5539
644.5754	165.6576
644.7316	167.247
644.8878	159.3098
645.044	158.802
645.2002	156.7191
645.3563	159.0396
645.5125	161.7641
645.6686	157.5588
645.8248	156.913
645.9809	161.787
646.137	161.1273
646.2931	151.3741
646.4492	154.7946
646.6053	153.0557
646.7614	155.1218
646.9174	156.8693
647.0735	151.9553
647.2296	146.7865
647.3856	151.9929
647.5417	152.0054
647.6977	149.7715
647.8537	159.1371
648.0098	159.2933
648.1658	156.7454
648.3218	149.3619
648.4777	151.0622
648.6337	151.0569
648.7897	152.6792
648.9457	151.6003
649.1016	148.2329
649.2576	140.671
649.4135	145.7264
649.5695	142.1216
649.7254	140.0484
649.8813	145.5232
650.0372	156.4346
650.1932	151.705
650.3491	152.4164
650.5049	158.5392
650.6608	158.9137
650.8167	153.3692
650.9725	154.2572
651.1284	159.2193
651.2842	150.6094
651.4401	145.6283
651.5959	143.739
651.7518	144.3728
651.9076	150.1044
652.0634	141.0887
652.2192	149.0631
652.3749	150.5238
652.5308	150.7301
652.6865	147.7798
652.8423	148.2205
652.998	148.6462
653.1538	151.5497
653.3096	151.8547
653.4653	149.3237
653.621	149.331
653.7767	149.5385
653.9324	149.4462
654.0881	149.8251
654.2438	150.5051
654.3995	152.1557
654.5552	150.5179
654.7109	144.3491
654.8665	142.1048
655.0222	142.1041
655.1778	148.7634
655.3334	144.3759
655.4891	142.7415
655.6447	135.8469
655.8003	136.0691
655.9559	133.7575
656.1115	124.381
656.2671	120.9243
656.4227	117.0174
656.5782	119.9261
656.7338	134.6117
656.8893	136.9874
657.0449	135.6169
657.2004	138.5862
657.356	139.8622
657.5115	145.3198
657.667	149.4895
657.8225	144.6654
657.978	147.9917
658.1335	143.5584
658.289	144.9578
658.4445	143.2374
658.5999	144.7835
658.7554	139.7909
658.9108	142.1262
659.0663	146.3385
659.2217	151.6861
659.3771	141.7288
659.5325	142.1191
659.6879	143.3569
659.8433	146.0278
659.9987	141.9198
660.1541	145.8807
660.3095	149.0802
660.4648	147.8179
660.6202	146.3355
660.7756	147.4689
660.9309	141.4447
661.0862	146.7628
661.2416	146.6041
661.3969	145.7063
661.5522	151.9553
661.7075	148.0904
661.8628	146.6492
662.0181	145.1317
662.1733	149.7834
662.3286	146.755
662.4839	155.6301
662.6391	154.0751
662.7944	144.63
662.9496	144.2363
663.1048	149.606
663.26	148.2311
663.4152	142.9268
663.5704	143.5708
663.7256	142.738
663.8808	145.4553
664.036	142.7963
664.1912	146.9426
664.3463	145.0901
664.5015	146.9873
664.6566	143.2401
664.8118	143.3608
664.9669	144.6306
665.122	145.1427
665.2771	141.6968
665.4322	141.6525
665.5873	152.7902
665.7424	151.8543
665.8975	148.2562
666.0526	144.8559
666.2076	139.5685
666.3627	144.2282
666.5177	143.1024
666.6727	143.5998
666.8278	145.9763
666.9828	141.6188
667.1378	139.4507
667.2928	136.3807
667.4478	140.7611
667.6028	140.4588
667.7578	139.0984
667.9127	141.6441
668.0677	142.6331
668.2226	147.3121
668.3776	143.2007
668.5325	140.0542
668.6874	143.4358
668.8423	139.2785
668.9973	144.6248
669.1522	141.5089
669.3071	144.9947
669.4619	147.4708
669.6168	138.2074
669.7717	132.4036
669.9265	135.031
670.0814	140.946
670.2362	140.6749
670.3911	139.5574
670.5459	140.5185
670.7007	140.2306
670.8555	131.7353
671.0103	133.8614
671.1651	135.5321
671.3199	140.8489
671.4747	141.1133
671.6295	141.9783
671.7842	139.9701
671.939	141.0162
672.0937	133.3853
672.2484	142.5813
672.4031	144.1286
672.5579	134.0253
672.7126	136.3763
672.8673	139.5665
673.022	142.4471
673.1767	137.7705
673.3314	142.84
673.486	140.8201
673.6407	132.9492
673.7953	125.0141
673.95	132.9398
674.1046	132.5387
674.2592	131.8413
674.4138	129.8213
674.5684	134.8563
674.723	129.1954
674.8776	132.6051
675.0322	128.6846
675.1868	127.0087
675.3414	132.0099
675.4959	129.1039
675.6505	130.9015
675.805	133.842
675.9595	134.2697
676.1141	132.6804
676.2686	135.7751
676.4231	126.9954
676.5776	132.5087
676.7321	130.5328
676.8866	126.8707
677.041	129.9216
677.1955	135.6175
677.35	133.9217
677.5044	130.7938
677.6589	134.3282
677.8133	130.2047
677.9677	128.1057
678.1221	133.0789
678.2766	125.3128
678.4309	125.913
678.5853	130.6255
678.7397	125.5959
678.8941	129.6125
679.0485	129.6781
679.2028	130.147
679.3571	131.5262
679.5115	123.4661
679.6658	130.0263
679.8201	124.2119
679.9744	126.8207
680.1288	124.1749
680.2831	124.0213
680.4373	120.9382
680.5916	128.3701
680.7459	123.6768
680.9001	123.0522
681.0544	126.3835
681.2087	132.3795
681.3629	125.8188
681.5171	120.5135
681.6713	128.0814
681.8256	123.277
681.9797	121.7961
682.134	126.2741
682.2881	122.1183
682.4423	128.9457
682.5965	128.1852
682.7507	123.5801
682.9048	118.7536
683.059	119.0489
683.2131	120.6677
683.3672	120.6056
683.5213	115.5596
683.6754	126.654
683.8295	113.8252
683.9836	117.1661
684.1377	114.1148
684.2918	114.2869
684.4459	115.8476
684.5999	115.3181
684.754	118.4181
684.908	120.6532
685.062	119.3176
685.2161	120.48
685.3701	115.6406
685.5241	117.8907
685.6781	121.5341
685.8321	118.5965
685.9861	117.8356
686.14	112.4833
686.294	114.6766
686.4479	117.6716
686.6019	103.6981
686.7559	100.0546
686.9098	95.25404
687.0637	89.83376
687.2176	87.81363
687.3715	87.33522
687.5254	93.4283
687.6793	96.57623
687.8332	103.0096
687.9871	101.0652
688.1409	100.8953
688.2947	104.5367
688.4486	102.0004
688.6024	103.5472
688.7563	102.1745
688.9101	102.7143
689.0639	103.1573
689.2177	100.8566
689.3715	102.7123
689.5253	103.56
689.6791	106.5091
689.8328	96.11857
689.9866	97.10258
690.1403	104.5881
690.2941	101.9636
690.4478	101.132
690.6015	103.4473
690.7552	105.9131
690.9089	107.156
691.0626	105.4303
691.2164	102.6653
691.37	102.37
691.5237	105.5068
691.6774	103.4521
691.831	106.649
691.9847	105.4575
692.1383	105.3588
692.2919	99.11024
692.4456	102.077
692.5992	101.6525
692.7527	101.4151
692.9064	103.4451
693.0599	100.4729
693.2136	101.7728
693.3671	99.591
693.5207	103.4646
693.6742	105.7305
693.8278	100.6189
693.9813	101.2679
694.1348	100.2098
694.2883	100.8096
694.4418	97.35101
694.5953	99.47028
694.7488	95.8797
694.9023	102.4808
695.0558	102.7418
695.2093	103.8465
695.3627	108.9675
695.5162	102.832
695.6696	101.8311
695.8231	90.59803
695.9764	99.02403
696.1299	99.89461
696.2833	100.8603
696.4367	103.5258
696.5901	104.0855
696.7435	104.5789
696.8968	104.9787
697.0502	104.6629
697.2036	99.99929
697.3569	101.8974
697.5102	100.2901
697.6635	106.6716
697.8168	109.7807
697.9702	101.1375
698.1235	91.85247
698.2768	97.15467
698.4301	101.8272
698.5833	101.4733
698.7366	104.7754
698.8898	101.5048
699.0431	92.88261
699.1964	101.9057
699.3495	106.2935
699.5028	103.4854
699.656	99.54137
699.8092	100.5989
699.9624	96.69157
700.1156	95.53233
700.2688	96.19805
700.4219	98.99738
700.5751	92.11012
700.7283	96.17676
700.8814	96.73688
701.0345	97.0423
701.1877	100.1443
701.3408	99.83382
701.4939	98.41811
701.647	98.04697
701.8001	101.0497
701.9532	101.814
702.1063	96.75604
702.2593	95.38257
702.4124	94.4175
702.5654	100.9562
702.7184	95.16215
702.8715	99.68147
703.0245	102.1436
703.1776	101.9637
703.3305	105.8556
703.4835	104.4944
703.6365	103.51
703.7895	104.4643
703.9424	96.64009
704.0954	95.18837
704.2484	101.1121
704.4013	102.9729
704.5543	99.20678
704.7072	96.51525
704.8601	99.26418
705.013	93.5612
705.1659	95.59966
705.3188	96.26596
705.4717	97.84866
705.6246	99.29897
705.7774	104.9091
705.9303	100.8958
706.0831	100.1526
706.236	108.8171
706.3888	101.7657
706.5416	98.85748
706.6944	94.28696
706.8472	88.53571
707	96.75129
707.1528	97.07915
707.3056	99.20524
707.4583	95.95527
707.6111	96.65004
707.7639	99.83919
707.9166	99.37233
708.0693	100.9802
708.222	101.2629
708.3748	100.4138
708.5275	97.64709
708.6802	97.28243
708.8328	99.77189
708.9855	94.53205
709.1382	94.65678
709.2909	97.82601
709.4435	97.68891
709.5962	95.25146
709.7488	95.61186
709.9014	96.13217
710.054	102.1409
710.2067	101.404
710.3593	95.37433
710.5118	93.77113
710.6644	93.73102
710.817	97.92282
710.9695	97.84502
711.1221	93.71624
711.2747	93.58752
711.4272	100.8284
711.5797	98.82193
711.7322	99.70584
711.8848	100.6654
712.0373	95.92585
712.1898	97.86316
712.3422	92.72334
712.4948	92.61723
712.6472	98.869
712.7996	94.64001
712.9521	99.49357
713.1046	94.79523
713.257	91.3414
713.4094	89.99673
713.5618	92.97221
713.7142	91.80714
713.8666	92.32906
714.019	94.23302
714.1714	97.20136
714.3237	94.20944
714.4761	95.24293
714.6285	94.10985
714.7808	89.43132
714.9331	89.13279
715.0854	89.07959
715.2378	95.79646
715.3901	93.75833
715.5424	99.57566
715.6947	97.66661
715.8469	91.0712
715.9992	90.799
716.1515	93.68018
716.3037	88.29652
716.456	89.04564
716.6082	83.13488
716.7604	81.86089
716.9127	78.71105
717.0649	77.18085
717.2171	78.98581
717.3693	72.42816
717.5214	73.50634
717.6736	79.10474
717.8258	76.10024
717.978	77.42017
718.1301	74.49109
718.2822	75.66908
718.4344	77.98568
718.5865	82.66473
718.7386	73.42481
718.8907	72.32015
719.0428	76.87974
719.1949	79.58506
719.3469	71.9647
719.499	71.74529
719.6511	77.40152
719.8031	74.72684
719.9551	69.30676
720.1072	72.63268
720.2592	71.11098
720.4112	71.64725
720.5632	75.43365
720.7152	73.78387
720.8672	78.26376
721.0192	81.61189
721.1711	82.89117
721.3231	83.99567
721.475	83.35035
721.627	86.26425
721.7789	84.68967
721.9308	82.93536
722.0828	84.6731
722.2347	87.85417
722.3866	90.84156
722.5385	84.97185
722.6903	85.77904
722.8422	83.0638
722.9941	80.98892
723.1459	80.19894
723.2977	75.03236
723.4496	71.7205
723.6014	72.00773
723.7532	71.29288
723.905	79.86053
724.0568	81.32951
724.2086	79.22535
724.3604	71.9727
724.5121	75.03875
724.6639	75.3283
724.8157	76.16746
724.9674	77.63976
725.1191	77.79118
725.2709	76.20394
725.4226	74.49035
725.5743	73.95416
725.726	78.76985
725.8777	73.63391
726.0294	77.14306
726.181	77.21883
726.3327	73.42943
726.4844	70.48158
726.636	77.25854
726.7877	80.06491
726.9393	79.83257
727.0909	79.20419
727.2425	83.32038
727.3941	76.12858
727.5457	70.82397
727.6973	75.47649
727.8488	68.67007
728.0004	71.45502
728.1519	73.11485
728.3035	79.70589
728.455	78.6582
728.6066	78.96204
728.7581	73.98107
728.9095	72.08287
729.0611	73.94949
729.2126	70.86356
729.364	73.81207
729.5155	76.86738
729.667	76.82573
729.8184	78.53658
729.9698	80.92486
730.1213	70.77872
730.2727	76.45937
730.4241	68.82819
730.5756	67.01279
730.7269	72.92522
730.8784	80.2011
731.0297	75.75841
731.1811	75.87624
731.3325	79.4856
731.4838	80.3914
731.6351	73.605
731.7865	76.72781
731.9378	73.29804
732.0891	76.71904
732.2404	75.87872
732.3917	78.17573
732.543	77.84028
732.6943	85.70345
732.8456	83.19714
732.9968	79.85281
733.1481	76.15993
733.2993	76.60457
733.4506	73.34084
733.6018	82.2421
733.753	81.57659
733.9042	77.90056
734.0554	84.23084
734.2066	80.18297
734.3578	82.93467
734.509	76.73595
734.6602	82.40044
734.8113	82.60767
734.9624	79.74583
735.1136	82.16423
735.2647	83.27549
735.4158	81.94337
735.5669	81.59602
735.718	74.57626
735.8691	78.26125
736.0201	77.00625
736.1713	81.48814
736.3223	82.52987
736.4733	79.70041
736.6244	84.57066
736.7755	77.58322
736.9265	77.43472
737.0775	76.7525
737.2285	76.41816
737.3795	78.81037
737.5305	79.24249
737.6815	79.60368
737.8324	74.86573
737.9834	75.48137
738.1343	79.64297
738.2853	83.37753
738.4362	80.93041
738.5871	78.76306
738.738	74.01424
738.8889	76.75741
739.0399	79.87556
739.1907	81.02258
739.3416	74.08978
739.4925	72.36412
739.6433	75.97998
739.7942	70.4827
739.945	75.42802
740.0958	77.41888
740.2467	79.69453
740.3975	78.89507
740.5483	76.32844
740.6991	81.91437
740.8499	74.99119
741.0007	75.5619
741.1514	75.41172
741.3022	75.54578
741.4529	72.93155
741.6036	76.4141
741.7544	78.70058
741.9051	75.72034
742.0558	78.60027
742.2065	79.6899
742.3572	77.18814
742.5079	79.14842
742.6586	73.11911
742.8093	74.2821
742.9599	81.46503
743.1105	77.18515
743.2612	76.49471
743.4118	82.30589
743.5624	81.72362
743.7131	77.83261
743.8636	76.62679
744.0142	72.84222
744.1648	73.84306
744.3154	74.77575
744.4659	72.57844
744.6165	73.50185
744.767	75.41832
744.9176	81.79201
745.0681	73.43742
745.2186	75.83549
745.3691	73.30968
745.5197	73.64663
745.6702	77.14031
745.8206	77.33821
745.9711	77.32056
746.1215	78.68686
746.272	75.95107
746.4224	75.33306
746.5729	73.26307
746.7233	76.18682
746.8737	74.89093
747.0241	79.51826
747.1745	73.72299
747.3249	75.14857
747.4753	75.03839
747.6257	78.51875
747.776	74.47725
747.9264	75.81957
748.0767	74.43303
748.2271	76.19048
748.3774	76.91336
748.5276	73.52248
748.678	72.70509
748.8282	76.6468
748.9786	71.86686
749.1288	74.53638
749.2791	70.33865
749.4294	68.36467
749.5796	68.7403
749.7299	69.90781
749.8801	69.9201
750.0303	71.57578
750.1805	71.27151
750.3307	67.2816
750.4809	68.77589
750.6311	69.00139
750.7813	72.23071
750.9314	72.24364
751.0816	64.50372
751.2318	62.8032
751.3818	70.35072
751.532	66.16879
751.6821	69.96115
751.8322	71.6659
751.9823	66.76495
752.1324	68.55511
752.2825	62.98411
752.4326	65.12863
752.5826	64.71161
752.7327	67.20117
752.8827	68.26733
753.0327	67.51981
753.1827	72.75129
753.3328	67.99271
753.4828	69.11162
753.6328	71.78025
753.7828	72.07771
753.9327	68.92725
754.0827	68.89871
754.2327	70.10353
754.3826	68.07542
754.5325	66.21568
754.6825	73.56766
754.8324	69.73901
754.9823	67.25527
755.1322	69.18398
755.2821	70.84414
755.432	68.14286
755.5818	65.924
755.7318	68.31814
755.8816	67.45691
756.0314	68.37607
756.1813	66.66989
756.3311	73.24248
756.4809	68.04179
756.6307	64.87511
756.7805	61.83587
756.9303	64.70117
757.0801	64.39207
757.2299	61.25963
757.3796	63.10631
757.5294	63.46225
757.6791	66.59821
757.8289	68.06477
757.9786	74.11176
758.1283	62.55222
758.278	62.44979
758.4277	64.77032
758.5773	58.68568
758.7271	59.42107
758.8767	62.70866
759.0264	64.30951
759.176	63.81377
759.3256	58.19656
759.4753	46.78217
759.6249	39.76746
759.7745	29.72231
759.9241	31.71609
760.0737	32.92366
760.2233	27.35604
760.3729	27.20234
760.5224	31.60495
760.6719	27.27348
760.8215	24.02133
760.971	27.33161
761.1205	33.69122
761.2701	38.2338
761.4196	34.29392
761.5691	37.16589
761.7186	47.80336
761.868	47.5394
762.0175	48.21263
762.167	44.98474
762.3164	40.28072
762.4659	39.46421
762.6153	41.17729
762.7647	41.94111
762.9141	38.98278
763.0635	38.29678
763.2129	35.09532
763.3623	40.2611
763.5117	38.0825
763.661	37.64504
763.8104	35.80098
763.9597	36.6518
764.1091	38.2103
764.2584	37.49887
764.4077	44.03289
764.557	41.38877
764.7063	44.34586
764.8556	42.25516
765.0049	43.42778
765.1541	48.6095
765.3034	47.58608
765.4526	44.90527
765.6019	47.32761
765.7511	49.82682
765.9003	50.82602
766.0496	51.43541
766.1987	47.16539
766.348	47.4488
766.4971	43.02916
766.6463	46.32304
766.7955	49.50012
766.9446	52.80564
767.0938	51.78421
767.2429	54.55685
767.392	51.2342
767.5411	53.4067
767.6902	51.81451
767.8394	54.80439
767.9884	53.30035
768.1375	55.27663
768.2866	55.54203
768.4356	50.38121
768.5847	52.97355
768.7337	50.44007
768.8828	53.55093
769.0317	54.20081
769.1808	52.16352
769.3298	53.82846
769.4788	56.2907
769.6277	54.69471
769.7767	56.59066
769.9257	52.22862
770.0746	51.69796
770.2236	51.40326
770.3725	54.95285
770.5214	51.16724
770.6703	55.67947
770.8193	50.75488
770.9681	49.46615
771.1171	52.99113
771.2659	50.40362
771.4148	50.73268
771.5637	55.16635
771.7125	53.75432
771.8613	53.97666
772.0101	56.17977
772.159	54.95802
772.3078	51.27024
772.4566	51.64138
772.6054	54.90564
772.7542	49.87247
772.903	51.38927
773.0517	53.0719
773.2004	54.03709
773.3492	50.72972
773.4979	53.2497
773.6467	50.67393
773.7953	51.88572
773.944	51.9433
774.0928	54.91302
774.2415	55.33988
774.3901	55.46939
774.5388	53.03166
774.6874	53.81643
774.8361	53.19508
774.9847	59.39905
775.1334	52.67321
775.282	47.748
775.4305	47.55863
775.5792	48.15142
775.7277	52.20458
775.8763	52.06425
776.0249	52.2003
776.1735	49.65257
776.322	49.74342
776.4705	53.9043
776.6191	51.78959
776.7676	48.08324
776.9161	55.99916
777.0646	50.62536
777.2131	49.58642
777.3616	46.82092
777.5101	53.474
777.6585	52.89253
777.8069	52.4532
777.9554	50.56586
778.1038	55.23019
778.2523	48.95961
778.4007	47.3603
778.5491	48.03678
778.6974	45.86114
778.8459	51.28196
778.9942	47.43578
779.1426	44.13025
779.291	51.52607
779.4393	56.0545
779.5876	47.73109
779.736	44.52307
779.8843	47.09452
780.0326	50.34949
780.1809	51.91316
780.3292	44.83159
780.4775	45.81968
780.6257	48.99594
780.774	51.52099
780.9222	46.42512
781.0704	45.50355
781.2187	52.09187
781.3669	52.17237
781.5151	49.81444
781.6633	48.6273
781.8115	43.29678
781.9597	44.58365
782.1078	49.5479
782.256	49.82955
782.4042	49.39131
782.5523	49.03999
782.7004	48.07911
782.8486	48.26312
782.9967	50.62334
783.1448	44.18835
783.2929	49.5812
783.441	44.73899
783.5891	44.51509
783.7371	46.00443
783.8851	47.61723
784.0332	50.06738
784.1812	47.65717
784.3293	46.32609
784.4773	52.01924
784.6253	48.77898
784.7733	49.57632
784.9213	44.02958
785.0692	46.96315
785.2172	43.43603
785.3652	44.04502
785.5131	47.24046
785.6611	45.39147
785.809	42.03849
785.9569	44.75993
786.1048	49.735
786.2527	45.53333
786.4006	44.46776
786.5485	44.46042
786.6964	45.88516
786.8442	50.1443
786.9921	43.80544
787.1399	47.84991
787.2877	46.1142
787.4355	47.58489
787.5833	44.98171
787.7311	41.78527
787.8789	47.36569
788.0267	46.7139
788.1745	45.2314
788.3223	39.44804
788.47	46.62215
788.6177	45.0744
788.7654	40.36696
788.9132	43.51688
789.0609	42.81401
789.2086	40.73285
789.3563	45.36523
789.504	41.07984
789.6517	45.71172
789.7993	45.44907
789.947	39.71868
790.0946	43.10025
790.2422	40.34047
790.3898	39.12893
790.5375	45.95398
790.6851	43.50008
790.8326	46.58168
790.9802	43.65734
791.1278	40.38976
791.2754	43.27876
791.423	42.00931
791.5705	39.00084
791.718	39.61098
791.8655	37.95979
792.0131	40.81347
792.1606	43.75559
792.308	45.43867
792.4556	44.29126
792.603	43.24084
792.7505	40.97445
792.8979	40.36608
793.0454	37.6311
793.1928	41.46528
793.3403	43.70938
793.4877	46.4604
793.6351	47.52129
793.7825	45.58329
793.9299	43.43018
794.0772	41.26734
794.2246	44.50456
794.3719	44.26653
794.5193	41.27423
794.6666	37.18127
794.814	38.47927
794.9613	44.43015
795.1086	44.03398
795.2559	40.97061
795.4032	38.76415
795.5505	39.82565
795.6978	42.45133
795.845	41.81586
795.9922	37.68697
796.1395	41.04893
796.2867	45.30431
796.4339	38.18372
796.5811	40.44258
796.7283	36.85954
796.8755	44.28581
797.0227	43.87614
797.1699	40.26396
797.317	39.55084
797.4642	42.15479
797.6113	40.64063
797.7584	38.78519
797.9056	37.95346
798.0527	36.65269
798.1998	44.99004
798.3469	40.38728
798.494	42.60385
798.641	39.97976
798.7881	36.80813
798.9351	38.90136
799.0822	37.62255
799.2292	37.18621
799.3762	36.20994
799.5232	38.78366
799.6702	37.71691
799.8172	37.55342
799.9642	39.93941
800.1111	38.48007
800.2581	36.42937
800.4051	35.27859
800.552	37.17259
800.6989	38.70623
800.8458	35.3703
800.9927	42.58615
801.1396	42.09872
801.2866	37.40601
801.4334	33.10593
801.5803	36.78827
801.7272	35.03203
801.874	41.1749
802.0209	39.7099
802.1677	35.09187
802.3145	34.02928
802.4613	39.62671
802.6081	35.91023
802.7549	36.51558
802.9017	35.01993
803.0485	34.10249
803.1952	34.9827
803.342	38.37983
803.4887	38.08663
803.6354	40.98588
803.7822	37.56116
803.9289	39.90683
804.0756	38.99289
804.2223	32.5379
804.369	32.458
804.5156	33.62712
804.6623	37.05143
804.8089	36.56591
804.9556	32.22755
805.1022	30.8742
805.2488	34.22908
805.3954	35.89238
805.542	39.91095
805.6886	38.89456
805.8352	39.55608
805.9818	34.97675
806.1283	34.04819
806.2749	34.37954
806.4214	36.08309
806.5679	38.64888
806.7145	42.36811
806.861	37.17299
807.0074	36.21759
807.154	38.62436
807.3004	37.03899
807.4469	35.81744
807.5934	32.28065
807.7398	33.76497
807.8862	33.0138
808.0327	35.61316
808.1791	32.89073
808.3255	32.78595
808.4719	31.97999
808.6183	33.84724
808.7647	36.92039
808.9111	36.35545
809.0574	34.74303
809.2037	35.93165
809.3501	34.90327
809.4965	32.68184
809.6428	32.58115
809.7891	33.8079
809.9354	28.35514
810.0817	29.39903
810.2279	29.60287
810.3742	36.15292
810.5204	31.85089
810.6667	34.32401
810.8129	32.33154
810.9592	26.59857
811.1054	34.19045
811.2516	31.51515
811.3978	28.22586
811.5439	33.35294
811.6901	31.06
811.8363	33.20067
811.9825	35.13699
812.1286	33.96425
812.2748	34.7458
812.4209	33.4305
812.567	29.31071
812.7131	31.02785
812.8592	29.48435
813.0053	31.14434
813.1514	27.11971
813.2974	30.21501
813.4435	29.32255
813.5895	28.24674
813.7356	29.88258
813.8816	29.78518
814.0276	29.14142
814.1736	30.47082
814.3196	30.14367
814.4656	31.33862
814.6116	27.85103
814.7576	23.55852
814.9035	22.39436
815.0494	32.22654
815.1954	31.6283
815.3413	28.96782
815.4872	26.4633
815.6331	27.23851
815.779	26.84107
815.9249	29.71197
816.0707	27.39965
816.2166	23.63127
816.3625	20.10433
816.5083	22.77187
816.6542	24.33837
816.8	24.82457
816.9458	26.78592
817.0916	31.11712
817.2374	31.5049
817.3832	27.80647
817.5289	31.49816
817.6747	26.98976
817.8204	25.36381
817.9662	26.04291
818.1119	26.35959
818.2576	27.21057
818.4034	21.46613
818.5491	26.75696
818.6948	23.69815
818.8405	24.78058
818.9861	24.72699
819.1318	24.57728
819.2774	27.32091
819.423	26.56092
819.5687	24.93749
819.7143	24.75511
819.8599	25.35762
820.0055	28.48555
820.1511	28.9201
820.2967	22.715
820.4422	26.14528
820.5878	25.53255
820.7333	27.1577
820.8788	30.25657
821.0244	21.04363
821.1699	22.125
821.3154	24.24087
821.4609	30.73183
821.6064	30.50542
821.7519	26.74115
821.8973	31.86327
822.0428	26.47371
822.1882	23.45697
822.3337	28.60353
822.4791	23.82219
822.6245	24.13322
822.7699	20.00265
822.9153	18.43433
823.0607	21.02519
823.2061	22.59055
823.3514	25.70116
823.4968	22.59377
823.6422	29.77234
823.7875	27.70897
823.9328	25.35854
824.0781	26.75917
824.2234	21.42024
824.3687	25.27353
824.514	23.61848
824.6592	24.06772
824.8045	28.47568
824.9498	31.80915
825.095	25.7027
825.2402	27.83326
825.3854	28.41477
825.5306	27.61013
825.6758	26.94785
825.821	27.38412
825.9662	24.99257
826.1114	24.83797
826.2565	23.41736
826.4017	20.55329
826.5468	22.14141
826.692	25.45961
826.837	25.08324
826.9822	26.42333
827.1273	23.89535
827.2723	28.64313
827.4174	20.30311
827.5625	19.05701
827.7075	20.24992
827.8526	24.45181
827.9976	21.27092
828.1426	21.47128
828.2877	21.24552
828.4327	25.69774
828.5776	25.38835
828.7227	24.29347
828.8676	22.21449
829.0126	27.24279
829.1575	24.68797
829.3024	29.00558
829.4474	25.35802
829.5923	26.22318
829.7372	26.1301
829.8821	21.83203
830.027	19.66141
830.1719	18.5764
830.3168	30.63333
830.4616	22.85319
830.6064	22.66893
830.7513	21.99739
830.8961	25.80262
831.041	22.37116
831.1857	25.90199
831.3306	23.39914
831.4753	24.29124
831.6201	28.21655
831.7649	28.15781
831.9096	24.68976
832.0544	23.47945
832.1991	23.92778
832.3438	21.6415
832.4885	20.53412
832.6332	23.50143
832.778	23.97956
832.9226	25.93439
833.0673	24.7037
833.2119	23.4282
833.3566	22.21607
833.5012	21.9394
833.6459	27.51504
833.7905	24.3971
833.9351	25.29005
834.0797	25.35571
834.2243	23.94266
834.3688	27.98479
834.5134	20.53351
834.658	23.25337
834.8026	22.10142
834.9471	19.36472
835.0916	24.76598
835.2361	22.5545
835.3806	21.64328
835.5251	28.29377
835.6696	17.63067
835.8141	20.88684
835.9586	20.90964
836.103	19.69989
836.2474	24.09852
836.3918	26.63401
836.5363	22.22769
836.6807	20.10996
836.8251	24.64641
836.9695	29.75306
837.1138	23.84596
837.2582	24.50632
837.4026	23.07355
837.5469	23.315
837.6913	27.27036
837.8356	23.69865
837.9799	17.09849
838.1242	24.41001
838.2686	25.17443
838.4128	27.17439
838.5571	28.50614
838.7014	19.69653
838.8456	21.6729
838.9899	24.139
839.1341	22.63095
839.2783	26.34031
839.4225	20.18682
839.5667	28.17226
839.7109	25.2265
839.8551	22.87477
839.9993	23.01145
840.1434	25.25374
840.2876	26.29258
840.4317	23.86084
840.5759	23.4677
840.72	25.53629
840.8641	21.73412
841.0082	23.51276
841.1523	24.54202
841.2963	25.92742
841.4404	21.99411
841.5845	19.82903
841.7285	24.13794
841.8726	23.26439
842.0165	21.57929
842.1606	22.96127
842.3046	22.42639
842.4485	23.88099
842.5925	21.07159
842.7365	19.0844
842.8805	22.09978
843.0244	21.34138
843.1684	20.95945
843.3123	18.48093
843.4562	20.15774
843.6002	22.52619
843.744	20.02081
843.8879	25.22041
844.0318	21.44429
844.1757	23.2862
844.3195	23.8679
844.4634	17.49205
844.6072	23.77513
844.751	24.46615
844.8948	20.65191
845.0386	24.28605
845.1824	20.98958
845.3262	20.39114
845.47	19.95809
845.6138	22.80287
845.7575	16.75239
845.9012	16.45233
846.045	21.78111
846.1887	20.91717
846.3324	20.96967
846.4761	19.65678
846.6198	23.54673
846.7635	21.04814
846.9071	23.28319
847.0508	21.69233
847.1944	21.69534
847.3381	21.74106
847.4817	20.03402
847.6253	20.28746
847.7689	19.29792
847.9125	20.83989
848.0561	22.38023
848.1996	25.02265
848.3432	22.65016
848.4868	17.66489
848.6303	19.54741
848.7738	19.72447
848.9174	17.58801
849.0609	17.50836
849.2043	22.04359
849.3478	22.05518
849.4913	23.79707
849.6348	19.53253
849.7782	22.77299
849.9217	19.6609
850.0651	25.16558
850.2086	19.199
850.3519	17.89717
850.4954	19.94226
850.6387	19.98171
850.7821	21.10625
850.9255	20.68242
851.0688	19.22618
851.2122	18.51918
851.3555	22.96109
851.4988	21.60838
851.6422	22.15522
851.7855	19.04131
851.9288	21.42724
852.0721	24.88722
852.2153	19.99616
852.3586	21.10512
852.5018	23.71604
852.6451	22.18942
852.7883	16.72201
852.9315	17.96498
853.0748	22.37368
853.218	19.47929
853.3611	20.2241
853.5043	21.83049
853.6475	20.42804
853.7906	18.7365
853.9338	20.26686
854.0769	13.07742
854.22	15.34727
854.3632	17.54008
854.5063	17.68117
854.6494	18.62854
854.7924	18.16006
854.9355	18.5294
855.0786	20.43891
855.2216	21.92085
855.3647	19.27163
855.5077	21.68541
855.6507	21.24802
855.7937	19.97177
855.9367	19.19041
856.0797	17.92059
856.2227	17.53166
856.3657	22.77473
856.5086	20.53577
856.6516	18.37259
856.7945	18.25555
856.9374	19.92093
857.0803	20.56372
857.2232	17.52523
857.3661	18.22244
857.509	18.23932
857.6519	21.0993
857.7947	22.52472
857.9376	24.31967
858.0804	24.34926
858.2232	21.34906
858.366	18.81287
858.5089	18.60559
858.6516	21.87801
858.7944	19.33458
858.9372	18.0637
859.08	20.29363
859.2227	15.52532
859.3654	14.7714
859.5082	15.88814
859.6509	18.90861
859.7936	15.94266
859.9363	17.04332
860.079	15.48414
860.2217	15.05743
860.3643	18.47262
860.507	18.95728
860.6496	18.95255
860.7922	16.91224
860.9349	19.69449
861.0775	22.10225
861.2201	17.98135
861.3627	18.14882
861.5052	16.08484
861.6478	16.86527
861.7904	15.50139
861.9329	21.0623
862.0755	19.42006
862.218	14.66094
862.3605	14.17549
862.503	21.15401
862.6455	23.10956
862.788	25.34673
862.9305	16.36333
863.0729	20.28445
863.2154	20.07404
863.3578	19.19223
863.5002	18.81395
863.6426	15.71975
863.7851	22.47006
863.9275	18.24242
864.0698	20.43301
864.2122	16.01198
864.3546	19.20244
864.4969	19.99277
864.6393	19.11119
864.7816	16.73882
864.924	21.21951
865.0662	20.19159
865.2086	17.83579
865.3508	15.97655
865.4931	17.7618
865.6354	22.81686
865.7776	17.1627
865.9199	18.17071
866.0621	12.32945
866.2043	14.12775
866.3466	16.74756
866.4888	17.05503
866.6309	18.32906
866.7731	15.91404
866.9153	9.532435
867.0574	12.60964
867.1996	15.56604
867.3417	13.16464
867.4839	15.39236
867.626	20.80535
867.7681	15.77859
867.9102	15.47875
868.0522	18.20748
868.1943	15.46362
868.3364	11.65964
868.4785	14.13105
868.6205	16.18749
868.7625	15.89245
868.9045	17.54995
869.0465	15.79673
869.1885	21.51401
869.3305	19.23587
869.4725	17.63914
869.6144	12.88431
869.7564	16.87853
869.8983	19.24236
870.0403	15.68559
870.1822	18.08694
870.3241	17.86094
870.466	17.73645
870.6079	18.15585
870.7498	16.1372
870.8916	16.39512
871.0335	15.8106
871.1754	17.18014
871.3171	14.47734
871.459	16.24091
871.6008	15.36492
871.7426	18.92496
871.8844	14.82173
872.0262	12.37989
872.1679	14.23542
872.3097	16.94026
872.4514	16.63555
872.5931	11.97203
872.7349	15.54663
872.8766	15.656
873.0183	20.06692
873.16	16.99263
873.3017	13.12764
873.4434	15.3206
873.585	16.4477
873.7266	13.32454
873.8683	16.88179
874.0099	12.77856
874.1516	9.614531
874.2932	12.93492
874.4348	15.09891
874.5763	18.56528
874.7179	20.31484
874.8594	12.88103
875.001	14.22541
875.1425	16.52108
875.2841	13.3306
875.4256	16.25263
875.5671	15.53911
875.7086	12.85902
875.85	13.838
875.9915	16.02303
876.133	21.87256
876.2744	16.50338
876.4159	12.44773
876.5573	15.36536
876.6987	13.15403
876.8401	12.20578
876.9815	16.21329
877.1229	17.99736
877.2643	16.07398
877.4056	15.87922
877.547	15.4302
877.6884	17.33254
877.8297	13.86428
877.971	11.28381
878.1123	17.63778
878.2536	12.9375
878.3949	11.42619
878.5362	12.16166
878.6774	15.48514
878.8187	17.71889
878.9599	16.9103
879.1011	14.60961
879.2424	13.35962
879.3836	14.37827
879.5248	13.22262
879.666	13.6019
879.8071	12.79161
879.9483	11.04015
880.0895	14.38199
880.2306	16.87148
880.3718	12.01514
880.5129	15.31963
880.654	11.14293
880.7951	9.133563
880.9362	8.369256
881.0773	11.83275
881.2183	12.33266
881.3594	15.42282
881.5004	20.52784
881.6414	19.38883
881.7825	15.71806
881.9235	18.44629
882.0645	14.19372
882.2054	13.07831
882.3464	15.12484
882.4874	17.84849
882.6284	14.24559
882.7693	9.502977
882.9103	10.55181
883.0512	18.06302
883.1921	14.77871
883.333	12.68273
883.4739	15.76873
883.6147	16.65532
883.7556	16.25156
883.8965	6.315694
884.0374	13.03524
884.1782	13.64513
884.319	12.13177
884.4598	9.95339
884.6006	12.39853
884.7414	13.13044
884.8822	15.42251
885.0229	14.44271
885.1637	17.52809
885.3044	16.18646
885.4452	10.58716
885.5859	9.489553
885.7266	11.69832
885.8673	14.39549
886.008	14.59727
886.1487	13.36528
886.2894	12.01501
886.43	11.86004
886.5707	13.09814
886.7113	11.67743
886.8519	11.79124
886.9926	13.71778
887.1331	14.34178
887.2737	11.02569
887.4143	15.57382
887.5549	16.25731
887.6954	14.39948
887.836	10.65669
887.9765	14.83785
888.1171	14.67159
888.2576	11.53121
888.3981	13.40476
888.5386	16.15473
888.679	15.4087
888.8195	15.17178
888.96	15.76579
889.1004	14.57981
889.2408	14.61228
889.3813	16.97761
889.5217	15.28465
889.6621	11.43755
889.8025	15.12907
889.9429	15.05823
890.0833	13.13915
890.2236	11.39326
890.364	16.68357
890.5043	12.6792
890.6446	13.06432
890.7849	11.27955
890.9252	12.02995
891.0655	16.21524
891.2058	11.26597
891.3461	14.28232
891.4863	11.20262
891.6266	9.997007
891.7668	12.5162
891.907	12.9846
892.0472	10.96621
892.1874	11.27957
892.3276	9.955424
892.4678	12.01927
892.608	12.269
892.7481	12.8652
892.8883	16.45419
893.0284	7.871391
893.1685	16.7689
893.3087	12.76558
893.4487	14.493
893.5889	13.43149
893.7289	13.92981
893.869	11.12082
894.009	8.266203
894.1491	9.590386
894.2891	12.02407
894.4291	12.16837
894.5692	15.83886
894.7092	9.143027
894.8491	12.73491
894.9891	14.44519
895.1291	8.62531
895.269	12.49009
895.409	11.62811
895.549	10.33684
895.6888	11.14848
895.8288	13.91056
895.9687	12.17379
896.1086	9.320304
896.2484	9.88052
896.3883	10.92296
896.5281	11.1524
896.668	10.55128
896.8079	8.473554
896.9476	11.01649
897.0875	15.95352
897.2272	9.774259
897.3671	11.54975
897.5068	7.391522
897.6466	8.451072
897.7864	11.77119
897.9261	13.47161
898.0658	9.028372
898.2056	12.7035
898.3453	14.28526
898.4849	11.86094
898.6246	13.34962
898.7643	13.57292
898.904	9.721764
899.0436	7.676138
899.1833	7.005524
899.3229	5.203435
899.4625	5.044909
899.6021	6.936404
899.7417	11.3465
899.8813	9.843936
900.0209	10.14428
900.1605	12.50219
900.3	9.128882
900.4395	11.224
900.579	6.057687
900.7186	7.312038
900.8581	8.161872
900.9976	8.282198
901.1371	7.846572
901.2766	12.60587
901.416	9.650528
901.5555	12.01206
901.6949	8.465937
901.8344	3.209146
901.9738	9.232799
902.1132	6.995543
902.2526	8.629777
902.3919	8.867307
902.5313	11.31407
902.6707	11.53422
