SPECTRUM DATA FILE
SpectrumCount:	1
PixelCount:	3648
UserName:	ToughBook User
SampleName:	
LightSource:	
Comments:	
DeviceName:	Qwave
DeviceManufacturer:	Broadcom
DeviceSerialNo:	11311

Name:	last spectrum
Date:	2024-05-02T15:23:20.9033321+02:00
ExposureTime:	0.02
TemporalAvg:	1
IntensityUnit:	normalizedCounts
CCDLoadLevel:	0.07347133
Temperature:	29.98056
DiagramColor:	200
ProcessingSteps:	335

Wavelength [nm]	Intensity1
334.421	18.14495
334.5891	19.05444
334.7573	13.69247
334.9254	16.37869
335.0935	15.61399
335.2616	15.63254
335.4297	22.0067
335.5978	23.02471
335.7659	15.83933
335.934	12.60543
336.1021	21.13032
336.2701	18.27008
336.4382	17.91556
336.6063	13.71821
336.7744	10.9503
336.9424	19.71894
337.1105	13.2194
337.2785	17.56957
337.4466	17.81142
337.6146	15.87889
337.7827	16.63558
337.9507	14.57922
338.1187	17.20805
338.2867	20.78681
338.4548	20.47364
338.6228	19.87813
338.7908	17.97145
338.9588	21.03997
339.1268	15.67182
339.2948	18.5709
339.4628	16.04492
339.6308	19.61474
339.7988	20.88656
339.9667	16.52384
340.1347	19.71255
340.3027	17.56063
340.4707	12.39831
340.6386	18.73162
340.8066	14.16622
340.9745	18.62006
341.1425	21.54744
341.3104	20.28869
341.4784	19.20686
341.6463	20.75999
341.8142	22.74358
341.9821	20.22652
342.1501	20.64559
342.318	19.1021
342.4859	20.18854
342.6538	19.66243
342.8217	23.96164
342.9896	18.36094
343.1575	17.07417
343.3254	18.02453
343.4933	19.73246
343.6612	19.97063
343.829	19.11222
343.9969	18.31464
344.1648	18.67999
344.3326	17.92921
344.5005	19.62226
344.6683	21.37131
344.8362	20.25741
345.004	23.20752
345.1719	22.87792
345.3397	22.65781
345.5075	19.70248
345.6754	19.41156
345.8432	18.83447
346.011	18.24346
346.1788	20.5299
346.3466	22.91239
346.5144	21.24121
346.6822	25.43081
346.85	23.32754
347.0178	25.07466
347.1856	18.36812
347.3534	19.80574
347.5211	22.42416
347.6889	21.94069
347.8567	20.49636
348.0244	21.98582
348.1922	23.02756
348.3599	20.03705
348.5277	18.79315
348.6954	19.28748
348.8632	24.65542
349.0309	23.6952
349.1986	16.57336
349.3663	20.20906
349.5341	17.63019
349.7018	22.43161
349.8695	21.31451
350.0372	24.61128
350.2049	26.84361
350.3726	29.21862
350.5403	28.4559
350.7079	25.68526
350.8756	25.53662
351.0433	19.81944
351.211	19.93636
351.3786	22.15425
351.5463	21.63536
351.714	23.78596
351.8816	26.66552
352.0493	22.07129
352.2169	23.29479
352.3846	21.45862
352.5522	22.2677
352.7198	22.4413
352.8875	26.24913
353.0551	24.66662
353.2227	20.90179
353.3903	25.56146
353.5579	26.33098
353.7255	28.04326
353.8931	29.1491
354.0607	31.52607
354.2283	23.24842
354.3958	25.09775
354.5634	24.57103
354.731	21.44914
354.8986	31.82958
355.0661	26.4426
355.2337	31.54107
355.4012	28.71331
355.5688	28.75399
355.7363	24.50337
355.9039	22.95668
356.0714	27.1662
356.239	24.32971
356.4065	23.07103
356.574	23.99487
356.7415	23.79177
356.909	28.88937
357.0765	25.44423
357.244	25.51178
357.4115	25.83265
357.579	28.4162
357.7465	24.521
357.914	24.76913
358.0815	19.85521
358.249	24.37086
358.4164	22.6386
358.5839	18.91952
358.7513	20.77678
358.9188	26.13212
359.0862	26.1218
359.2537	25.75845
359.4211	33.66786
359.5886	30.48426
359.756	31.04186
359.9234	34.57494
360.0909	33.85597
360.2583	28.28943
360.4257	31.61026
360.5931	27.24057
360.7605	24.37238
360.9279	27.75115
361.0953	27.18821
361.2627	30.57106
361.4301	31.62892
361.5974	28.49978
361.7648	27.28813
361.9322	29.80193
362.0995	30.58771
362.2669	33.89616
362.4343	33.17788
362.6016	32.89313
362.769	32.50316
362.9363	28.41876
363.1036	26.93998
363.271	26.98135
363.4383	28.17965
363.6056	29.55383
363.7729	32.30562
363.9402	37.70592
364.1075	37.22293
364.2748	38.27776
364.4421	29.44724
364.6094	27.14826
364.7767	33.97015
364.944	30.18576
365.1113	32.39906
365.2786	28.56237
365.4458	36.10787
365.6131	38.35738
365.7803	38.95229
365.9476	40.38322
366.1148	44.21413
366.2821	41.42186
366.4493	38.77134
366.6166	33.98816
366.7838	40.4912
366.951	36.68483
367.1182	35.85562
367.2855	37.94817
367.4527	37.47536
367.6199	36.68901
367.7871	30.93182
367.9543	33.73151
368.1215	38.17872
368.2886	35.33572
368.4558	37.62391
368.623	32.85413
368.7902	36.77972
368.9573	36.15085
369.1245	37.90132
369.2917	40.01868
369.4588	44.4981
369.6259	39.53641
369.7931	39.23001
369.9602	40.58908
370.1274	39.70051
370.2945	38.36666
370.4616	37.25379
370.6287	32.78603
370.7958	33.56396
370.963	37.15471
371.1301	44.54356
371.2971	43.6752
371.4643	48.09397
371.6313	40.49969
371.7984	43.65056
371.9655	34.77799
372.1326	31.04365
372.2997	33.75529
372.4667	34.75254
372.6338	40.16352
372.8008	42.50131
372.9679	43.94645
373.1349	35.62331
373.3019	36.82518
373.469	33.25298
373.636	30.76224
373.803	30.26458
373.9701	37.72446
374.1371	36.84514
374.3041	39.32913
374.4711	36.24999
374.6381	26.86469
374.8051	33.12528
374.9721	33.24743
375.1391	41.39853
375.3061	45.76111
375.473	51.51403
375.64	49.66263
375.8069	45.17382
375.9739	48.75379
376.1409	47.4318
376.3078	42.14302
376.4748	43.42776
376.6417	45.86994
376.8087	43.53148
376.9756	44.83985
377.1425	54.13055
377.3094	57.79345
377.4763	53.17747
377.6432	48.87739
377.8102	53.15151
377.9771	59.84007
378.144	58.02079
378.3109	59.14022
378.4777	57.55019
378.6446	54.94561
378.8115	47.86545
378.9784	47.66206
379.1452	45.81417
379.3121	44.83847
379.4789	47.58766
379.6458	41.35484
379.8127	42.79863
379.9795	44.39353
380.1463	52.59731
380.3131	57.46043
380.48	55.23384
380.6468	54.19473
380.8136	51.75574
380.9804	53.05055
381.1472	50.52718
381.314	49.66862
381.4808	43.9625
381.6476	46.02626
381.8144	44.99461
381.9812	42.35914
382.148	42.71369
382.3147	46.16167
382.4815	43.48927
382.6483	36.77278
382.815	44.01232
382.9818	37.27103
383.1485	39.00034
383.3153	39.83899
383.482	37.25977
383.6487	34.66694
383.8155	40.98388
383.9822	43.25758
384.1489	44.61998
384.3156	47.49696
384.4823	53.68645
384.649	57.0812
384.8157	52.38266
384.9824	53.02438
385.1491	54.45986
385.3158	55.31997
385.4825	48.34723
385.6491	48.96008
385.8158	45.89877
385.9825	43.09494
386.1491	48.2651
386.3157	54.63729
386.4824	53.37109
386.649	55.48959
386.8157	55.85947
386.9823	48.89927
387.1489	50.97372
387.3156	50.38221
387.4821	55.14771
387.6488	49.70769
387.8154	53.82057
387.982	54.29826
388.1486	48.72041
388.3152	51.05185
388.4818	57.2337
388.6483	55.76402
388.8149	54.1949
388.9815	54.28546
389.148	63.367
389.3146	62.91044
389.4811	65.27997
389.6477	63.18739
389.8142	67.00139
389.9808	68.049
390.1473	68.04323
390.3138	64.40116
390.4804	58.18836
390.6469	60.51295
390.8134	65.552
390.9799	69.34175
391.1464	69.73936
391.3129	71.82986
391.4794	75.83916
391.6459	72.73963
391.8124	69.22031
391.9789	70.26354
392.1453	65.64989
392.3118	63.05066
392.4782	64.96729
392.6447	61.57926
392.8112	48.51068
392.9776	40.44352
393.144	33.05
393.3105	31.22162
393.4769	29.76247
393.6433	33.03765
393.8098	41.82293
393.9762	48.86094
394.1426	59.15992
394.309	54.97487
394.4754	65.06059
394.6418	63.27814
394.8082	68.68555
394.9746	74.35862
395.141	77.60394
395.3073	71.25191
395.4737	79.04632
395.64	77.19949
395.8064	78.5561
395.9728	70.64937
396.1391	70.0406
396.3055	61.01117
396.4718	50.1132
396.6381	38.87999
396.8045	34.5481
396.9708	37.23112
397.1371	43.14271
397.3034	51.77381
397.4697	61.13696
397.636	71.88059
397.8023	87.70915
397.9686	82.80539
398.1349	85.31879
398.3012	87.27769
398.4675	92.88641
398.6337	91.726
398.8	88.57555
398.9662	94.07613
399.1325	101.2771
399.2988	97.23206
399.465	100.1328
399.6313	102.7427
399.7975	99.21161
399.9637	102.5989
400.1299	103.6754
400.2961	97.77699
400.4624	89.20811
400.6286	91.135
400.7948	97.64989
400.961	100.5575
401.1272	107.5729
401.2934	106.7914
401.4595	111.9564
401.6257	111.0248
401.7919	112.6077
401.9581	111.9904
402.1242	105.8829
402.2904	108.4192
402.4565	110.0613
402.6227	104.358
402.7888	111.0638
402.955	108.3637
403.1211	99.305
403.2872	99.49186
403.4533	103.5088
403.6194	111.2592
403.7856	118.1239
403.9517	120.3263
404.1177	120.9339
404.2838	113.2662
404.4499	102.2764
404.616	91.88227
404.7821	101.5254
404.9482	114.8059
405.1142	119.7256
405.2803	115.6649
405.4464	116.2297
405.6124	104.0713
405.7784	108.5371
405.9445	110.7698
406.1105	109.0708
406.2766	101.3458
406.4426	99.56635
406.6086	102.2421
406.7746	117.5483
406.9406	116.2656
407.1066	118.3133
407.2726	110.0257
407.4386	112.3244
407.6046	116.8614
407.7706	115.7668
407.9366	107.1336
408.1025	114.1294
408.2685	125.0366
408.4344	127.7432
408.6004	123.3389
408.7664	133.3969
408.9323	139.9628
409.0983	134.5397
409.2642	130.7943
409.4301	130.2158
409.596	126.7213
409.762	119.2288
409.9279	114.0145
410.0938	103.4598
410.2597	100.7859
410.4256	111.0157
410.5915	127.674
410.7574	126.9891
410.9232	128.7611
411.0891	133.3455
411.255	135.656
411.4209	141.2158
411.5867	146.7415
411.7526	144.0117
411.9184	138.4516
412.0843	130.2922
412.2501	135.3464
412.4159	138.9256
412.5818	136.4427
412.7476	129.4873
412.9134	129.2439
413.0792	131.0831
413.245	124.8586
413.4108	128.3292
413.5766	137.4959
413.7424	144.6018
413.9082	152.5349
414.074	146.9371
414.2397	137.8377
414.4055	135.7162
414.5713	130.9553
414.737	139.9874
414.9028	141.222
415.0685	135.2521
415.2343	138.756
415.4	143.4969
415.5658	134.7583
415.7315	144.5588
415.8972	147.2976
416.0629	150.8165
416.2286	151.8134
416.3943	149.2284
416.56	150.072
416.7257	142.0959
416.8914	146.8825
417.0571	148.9291
417.2228	138.5384
417.3884	131.8881
417.5541	140.4453
417.7198	140.1946
417.8854	142.7016
418.0511	142.5059
418.2167	145.359
418.3824	144.4586
418.548	137.7605
418.7136	135.0857
418.8792	140.9795
419.0449	142.1524
419.2105	151.4389
419.3761	154.6253
419.5417	146.1086
419.7073	141.7389
419.8729	133.5987
420.0385	133.2897
420.204	139.9875
420.3696	151.5572
420.5352	159.5693
420.7007	157.838
420.8663	159.4414
421.0319	158.9546
421.1974	170.5881
421.3629	166.0518
421.5285	161.9282
421.694	149.5864
421.8595	158.8764
422.0251	161.8929
422.1906	169.9758
422.3561	156.9709
422.5216	138.3949
422.6871	130.8121
422.8526	140.9727
423.0181	157.5711
423.1835	161.8509
423.349	163.7957
423.5145	157.002
423.68	146.2373
423.8454	153.2065
424.0109	157.6279
424.1763	160.7615
424.3418	160.8549
424.5072	161.5711
424.6726	164.4762
424.838	153.555
425.0035	156.0461
425.1689	160.1894
425.3343	155.6448
425.4997	156.7753
425.6651	151.9832
425.8305	149.3266
425.9959	148.6224
426.1613	152.3285
426.3267	162.8953
426.492	170.3979
426.6574	165.8715
426.8228	162.3122
426.9881	153.3969
427.1534	144.4736
427.3188	143.815
427.4841	145.9132
427.6495	156.1473
427.8148	167.9561
427.9801	158.8526
428.1454	161.4033
428.3107	168.6166
428.476	165.8944
428.6414	155.7173
428.8066	152.6513
428.9719	144.303
429.1372	150.3715
429.3025	151.6604
429.4678	152.1761
429.633	150.437
429.7983	135.4286
429.9636	129.2133
430.1288	116.6004
430.294	118.7407
430.4593	128.6172
430.6245	122.2508
430.7897	115.8606
430.955	111.9761
431.1202	118.6781
431.2854	136.3432
431.4506	151.3983
431.6158	172.0312
431.781	191.0673
431.9462	194.8972
432.1114	182.2529
432.2766	173.6502
432.4417	147.5001
432.6069	147.6564
432.772	161.8974
432.9372	177.5646
433.1024	181.7901
433.2675	196.814
433.4326	200.091
433.5977	188.9166
433.7629	165.9197
433.928	145.5097
434.0931	144.0638
434.2582	159.7796
434.4233	162.9317
434.5884	177.5603
434.7535	191.3151
434.9186	196.381
435.0837	187.6875
435.2488	178.9856
435.4138	174.3396
435.5789	185.7345
435.744	194.3683
435.909	194.357
436.0741	194.8373
436.2391	204.2307
436.4042	214.2997
436.5692	216.6389
436.7342	209.6138
436.8992	200.5733
437.0643	197.363
437.2293	199.4472
437.3943	196.0324
437.5593	187.8045
437.7243	188.5011
437.8893	194.7251
438.0542	198.6198
438.2192	188.0872
438.3842	165.0771
438.5491	165.3978
438.7141	179.2727
438.8791	194.9017
439.044	192.513
439.209	197.0011
439.3739	198.491
439.5388	197.6076
439.7037	207.7323
439.8687	213.285
440.0336	201.4963
440.1985	201.92
440.3634	192.006
440.5283	190.4045
440.6932	190.2986
440.8581	200.2744
441.0229	218.6688
441.1878	219.364
441.3527	220.2518
441.5175	213.6004
441.6824	206.9039
441.8472	211.1828
442.0121	219.5822
442.1769	227.3392
442.3418	226.0932
442.5066	223.4422
442.6714	232.0711
442.8362	228.4822
443.001	216.5532
443.1659	223.9112
443.3307	218.6734
443.4955	213.6447
443.6602	212.6872
443.825	223.4931
443.9898	234.4579
444.1546	228.5946
444.3193	222.4137
444.4841	234.785
444.6488	230.1286
444.8136	231.7014
444.9783	233.0008
445.1431	235.3759
445.3078	233.8813
445.4725	222.2359
445.6372	212.3982
445.802	203.4892
445.9667	206.2197
446.1314	213.6352
446.2961	214.2872
446.4608	222.7939
446.6255	235.3893
446.7901	228.1787
446.9548	233.2901
447.1195	234.1739
447.2841	245.2979
447.4488	248.5413
447.6134	257.2862
447.7781	252.4093
447.9427	240.2104
448.1074	228.8336
448.272	231.4623
448.4366	238.3339
448.6012	245.9549
448.7658	243.2645
448.9305	245.8255
449.095	248.4476
449.2596	250.1902
449.4242	244.8143
449.5888	250.3413
449.7534	253.6462
449.9179	255.9506
450.0825	258.6089
450.2471	260.9439
450.4116	263.6289
450.5762	273.971
450.7407	271.2523
450.9052	266.1567
451.0698	273.56
451.2343	272.5327
451.3988	268.7309
451.5633	265.2151
451.7278	269.13
451.8923	260.0957
452.0568	261.2096
452.2213	271.1479
452.3858	263.0812
452.5503	255.5246
452.7148	248.3293
452.8792	239.0197
453.0437	234.7
453.2081	242.7206
453.3726	244.98
453.537	246.2021
453.7015	244.7769
453.8659	260.6553
454.0303	274.1803
454.1947	259.2934
454.3592	266.2634
454.5236	270.55
454.688	265.9361
454.8524	252.7907
455.0168	246.4553
455.1811	254.0917
455.3455	257.6007
455.5099	254.8002
455.6743	255.3309
455.8386	273.3464
456.003	280.4837
456.1673	280.5266
456.3317	270.6224
456.496	260.7159
456.6603	268.0373
456.8246	271.4991
456.989	274.3225
457.1533	273.6983
457.3176	262.812
457.4819	275.7623
457.6462	285.5901
457.8105	268.4842
457.9748	273.0901
458.1391	260.7424
458.3033	256.9333
458.4676	264.6225
458.6319	266.1226
458.7961	275.7657
458.9604	270.7126
459.1246	273.6192
459.2888	258.742
459.4531	259.2975
459.6173	263.583
459.7815	266.4912
459.9457	269.5494
460.11	269.2474
460.2741	267.3419
460.4384	272.6714
460.6025	269.3094
460.7667	274.976
460.9309	277.3642
461.0951	277.0142
461.2592	276.3117
461.4234	268.7025
461.5876	273.6268
461.7517	281.3514
461.9159	276.2211
462.08	287.3867
462.2441	291.3272
462.4082	280.4475
462.5724	276.0875
462.7365	276.7143
462.9006	274.84
463.0647	281.6161
463.2288	284.0637
463.3929	290.9621
463.557	278.9909
463.721	271.0395
463.8851	273.537
464.0492	276.8709
464.2132	283.0106
464.3773	280.7056
464.5414	274.2128
464.7054	266.9401
464.8694	260.4905
465.0334	269.163
465.1975	278.8928
465.3615	280.7875
465.5255	281.9291
465.6895	285.7709
465.8535	288.1007
466.0175	294.706
466.1815	299.4782
466.3455	281.4096
466.5095	277.488
466.6734	261.9774
466.8374	254.6601
467.0014	261.73
467.1653	279.7587
467.3293	288.4335
467.4932	286.7709
467.6571	283.629
467.8211	283.7381
467.985	278.3431
468.1489	282.1895
468.3128	289.5
468.4767	290.1589
468.6406	285.152
468.8045	288.5032
468.9684	286.7485
469.1323	279.4427
469.2962	289.6507
469.46	296.394
469.6239	299.4508
469.7878	299.2531
469.9516	287.4351
470.1154	282.4812
470.2793	276.8283
470.4431	277.9893
470.607	279.5013
470.7708	278.1288
470.9346	278.8499
471.0984	284.123
471.2622	285.1075
471.426	289.6761
471.5898	288.7753
471.7536	298.4673
471.9174	302.5492
472.0811	307.0711
472.2449	301.6976
472.4087	307.6221
472.5724	304.4407
472.7362	288.4675
472.8999	289.4791
473.0637	287.6733
473.2274	293.7435
473.3911	290.9312
473.5548	294.5962
473.7185	291.4887
473.8822	294.3412
474.0459	296.9643
474.2096	303.5862
474.3733	298.3264
474.537	307.1091
474.7007	313.2681
474.8643	308.8803
475.028	301.5323
475.1917	304.2852
475.3553	301.3189
475.519	294.0242
475.6826	294.3861
475.8463	294.5445
476.0099	297.8387
476.1735	304.2508
476.3371	291.7456
476.5007	285.0738
476.6643	289.357
476.8279	288.593
476.9915	296.4175
477.1551	291.8512
477.3187	299.6357
477.4823	302.0967
477.6458	305.2183
477.8094	301.3112
477.9729	306.0208
478.1365	299.8848
478.3	294.2313
478.4636	298.6158
478.6271	292.8204
478.7906	286.3059
478.9541	290.4273
479.1176	301.3856
479.2812	304.0714
479.4447	309.5572
479.6082	316.4719
479.7716	308.4632
479.9351	295.7336
480.0986	292.1278
480.2621	295.4564
480.4255	305.8536
480.589	294.1215
480.7524	292.5463
480.9159	293.0312
481.0793	295.3006
481.2428	292.6494
481.4062	299.7493
481.5696	311.6152
481.733	313.3844
481.8964	317.6693
482.0598	304.1132
482.2232	316.1898
482.3866	303.2725
482.55	302.4102
482.7134	301.9346
482.8768	309.5097
483.0401	309.4842
483.2035	298.1562
483.3668	302.6217
483.5302	309.7856
483.6935	311.0488
483.8568	304.1068
484.0202	296.5225
484.1835	295.1071
484.3468	295.7228
484.5101	314.733
484.6734	315.294
484.8367	308.8111
485	303.7884
485.1633	303.5226
485.3266	293.5946
485.4899	287.2206
485.6531	280.5595
485.8164	267.381
485.9796	239.0687
486.1429	227.3036
486.3061	226.9012
486.4694	242.9928
486.6326	270.2646
486.7958	285.9243
486.959	283.4339
487.1223	273.3782
487.2855	271.8659
487.4486	276.7136
487.6118	293.6309
487.775	296.1274
487.9382	297.2016
488.1014	307.0136
488.2646	306.9712
488.4277	303.7541
488.5909	301.2383
488.754	295.4393
488.9171	283.527
489.0803	284.3952
489.2434	287.0111
489.4066	298.4097
489.5697	316.2388
489.7328	325.5832
489.8959	320.5104
490.059	318.6413
490.2221	311.8911
490.3852	301.2747
490.5482	313.7952
490.7113	320.0835
490.8744	304.9476
491.0374	300.1949
491.2005	292.1793
491.3636	304.4308
491.5266	309.684
491.6896	306.279
491.8527	288.0137
492.0157	266.6085
492.1787	268.2505
492.3417	284.8661
492.5047	294.8092
492.6677	306.8974
492.8307	310.1386
492.9937	315.3033
493.1567	316.8929
493.3196	310.7132
493.4826	299.3426
493.6456	298.179
493.8085	295.0964
493.9715	288.6482
494.1344	302.0976
494.2974	313.0913
494.4603	316.7752
494.6232	316.3157
494.7861	316.0239
494.949	324.9946
495.1119	318.7484
495.2748	314.3239
495.4377	311.8413
495.6006	301.1046
495.7635	291.9828
495.9264	296.1198
496.0892	303.5369
496.2521	320.4338
496.4149	323.8289
496.5778	312.5893
496.7407	315.3668
496.9035	309.6171
497.0663	313.8312
497.2291	313.5693
497.3919	310.4558
497.5547	314.7827
497.7176	323.1418
497.8804	314.5863
498.0432	303.4151
498.2059	300.3673
498.3687	288.744
498.5315	287.0112
498.6942	296.0865
498.857	312.7547
499.0198	319.0594
499.1825	308.1787
499.3452	314.3091
499.508	318.1587
499.6707	328.942
499.8334	310.7523
499.9962	307.898
500.1589	306.4352
500.3216	301.6289
500.4843	295.9495
500.6469	292.2484
500.8096	293.1163
500.9723	303.4544
501.135	305.7553
501.2976	300.0229
501.4603	301.5231
501.623	298.5275
501.7856	299.2781
501.9482	295.2591
502.1109	301.6532
502.2735	310.4966
502.4361	312.0826
502.5987	312.0532
502.7614	300.9624
502.924	312.7051
503.0865	321.6586
503.2491	333.4412
503.4117	326.6987
503.5743	319.2549
503.7368	311.4026
503.8994	296.6594
504.062	294.174
504.2245	296.3071
504.3871	312.9822
504.5496	327.5293
504.7121	332.1272
504.8746	323.5976
505.0372	314.5674
505.1997	312.5842
505.3622	327.4763
505.5247	330.8358
505.6872	338.0093
505.8497	335.2765
506.0121	337.6408
506.1746	336.9076
506.3371	331.7181
506.4995	324.9328
506.662	316.2608
506.8244	316.2713
506.9869	322.5475
507.1493	325.2565
507.3117	329.0363
507.4742	318.5013
507.6366	317.6409
507.799	321.2545
507.9614	312.1461
508.1238	303.3293
508.2862	308.0465
508.4485	313.7395
508.6109	317.3999
508.7733	330.724
508.9357	331.4321
509.098	323.6468
509.2604	332.1876
509.4227	326.4244
509.5851	332.3451
509.7474	323.0972
509.9097	305.3623
510.072	305.6687
510.2343	316.13
510.3966	321.2525
510.5589	322.9726
510.7212	318.0771
510.8835	308.4241
511.0458	312.4758
511.2081	308.1661
511.3703	320.8146
511.5326	326.7649
511.6949	320.8183
511.8571	319.1204
512.0193	324.0236
512.1816	323.6145
512.3438	312.4438
512.506	308.2959
512.6682	304.7364
512.8304	303.1798
512.9926	299.4371
513.1548	305.0514
513.317	310.5531
513.4792	308.5739
513.6414	307.3293
513.8035	310.7961
513.9657	293.9467
514.1279	291.1719
514.29	294.6937
514.4521	303.3001
514.6143	300.7194
514.7764	305.5463
514.9385	302.2169
515.1006	303.6841
515.2628	302.2168
515.4249	300.2104
515.587	306.6628
515.7491	319.3264
515.9111	312.037
516.0732	311.3036
516.2353	302.6786
516.3973	290.9324
516.5594	277.3016
516.7214	257.8922
516.8835	247.5692
517.0455	256.9644
517.2076	249.4688
517.3696	255.1036
517.5316	279.4526
517.6937	300.6304
517.8557	311.565
518.0176	305.8646
518.1796	286.3824
518.3416	254.8422
518.5036	252.7538
518.6656	264.8162
518.8275	287.7068
518.9895	305.8034
519.1514	298.2604
519.3134	296.024
519.4753	297.79
519.6373	299.8627
519.7992	302.0164
519.9611	306.0661
520.123	311.7895
520.2849	308.5263
520.4468	305.205
520.6087	298.3745
520.7706	298.1544
520.9325	304.6178
521.0944	305.5495
521.2562	315.9888
521.4181	315.6664
521.58	301.8349
521.7418	299.6694
521.9036	311.1355
522.0655	319.9633
522.2273	322.4668
522.3891	307.7772
522.551	297.1529
522.7128	284.4747
522.8746	291.8775
523.0363	299.7584
523.1981	311.6105
523.3599	308.2189
523.5217	310.9689
523.6835	309.1413
523.8452	315.8399
524.007	319.6952
524.1687	326.2125
524.3304	329.9208
524.4922	328.0194
524.6539	335.4034
524.8157	321.7638
524.9774	320.5241
525.1391	316.4967
525.3008	313.4415
525.4625	309.7885
525.6241	326.0554
525.7858	337.5734
525.9475	330.2285
526.1092	315.0002
526.2709	307.8069
526.4325	291.2963
526.5942	286.4751
526.7558	281.5782
526.9174	282.6534
527.079	283.2593
527.2407	285.1886
527.4023	300.8663
527.5639	313.9902
527.7255	324.2929
527.8871	326.7498
528.0487	321.2484
528.2103	314.2335
528.3718	308.4962
528.5334	312.7202
528.695	324.9636
528.8565	332.1887
529.0181	336.1012
529.1796	347.0509
529.3412	338.0724
529.5027	328.2935
529.6642	321.4496
529.8257	316.36
529.9872	320.6523
530.1487	324.4672
530.3102	324.2878
530.4717	324.7766
530.6332	337.1546
530.7947	326.0592
530.9562	329.603
531.1176	335.5337
531.2791	326.9698
531.4405	331.9908
531.6019	323.0395
531.7634	316.4075
531.9248	327.6723
532.0862	326.3411
532.2477	328.0641
532.4091	312.2417
532.5704	300.7
532.7319	288.8645
532.8932	285.3174
533.0546	288.1716
533.216	308.9829
533.3774	331.8489
533.5388	322.1938
533.7001	311.2979
533.8615	309.8385
534.0228	309.6325
534.1841	306.1431
534.3455	305.2161
534.5068	317.5833
534.6681	316.6362
534.8293	307.2124
534.9907	315.3064
535.152	316.6762
535.3132	321.8103
535.4745	321.1891
535.6358	323.665
535.7971	329.958
535.9583	326.1862
536.1196	317.5522
536.2808	310.8717
536.4421	305.5336
536.6033	305.8894
536.7645	303.826
536.9258	300.2824
537.087	294.6504
537.2482	292.0103
537.4094	298.5012
537.5706	308.3797
537.7318	307.6628
537.8929	312.3798
538.0541	310.7127
538.2153	305.7235
538.3764	302.4969
538.5376	306.4339
538.6987	301.3609
538.8599	311.2685
539.021	312.5036
539.1821	308.6503
539.3432	303.6884
539.5043	293.6961
539.6655	292.8152
539.8265	287.3798
539.9876	291.6623
540.1487	295.9612
540.3098	294.1375
540.4708	278.7957
540.6319	278.9581
540.793	292.6071
540.954	292.0223
541.1151	289.3413
541.2761	295.0229
541.4371	303.5377
541.5981	291.1686
541.7592	297.4526
541.9202	304.8669
542.0812	298.4789
542.2422	301.5573
542.4031	296.6682
542.5641	293.9444
542.7251	298.3858
542.886	303.1832
543.0471	301.0182
543.208	297.2104
543.369	286.1929
543.5298	291.4883
543.6908	297.8688
543.8517	297.5098
544.0126	303.6349
544.1736	309.7221
544.3345	308.5932
544.4954	292.8145
544.6563	287.4369
544.8171	283.3775
544.978	297.6449
545.1389	305.0278
545.2997	307.5853
545.4606	303.3269
545.6215	293.8923
545.7823	288.508
545.9432	296.2344
546.104	305.5876
546.2648	297.3465
546.4256	294.5097
546.5864	296.5486
546.7473	309.3285
546.908	307.5411
547.0688	308.2438
547.2296	309.5482
547.3904	302.0614
547.5511	288.6643
547.7119	283.9463
547.8727	294.743
548.0334	300.7258
548.1942	304.5345
548.3549	300.8907
548.5156	299.3772
548.6763	308.6845
548.837	305.2833
548.9977	303.9093
549.1584	305.7893
549.3192	304.6778
549.4798	311.3665
549.6405	299.5292
549.8011	301.5648
549.9619	302.4923
550.1225	304.349
550.2831	308.4046
550.4438	294.8839
550.6044	301.4422
550.765	296.9262
550.9257	298.3628
551.0863	300.9941
551.2469	301.7703
551.4075	295.2664
551.5681	294.7509
551.7287	298.3816
551.8893	304.9871
552.0498	310.874
552.2104	304.4159
552.371	305.889
552.5315	300.002
552.6921	296.5613
552.8526	288.1205
553.0131	285.1279
553.1736	297.2556
553.3342	302.2654
553.4947	294.3572
553.6552	291.9745
553.8157	298.2892
553.9762	295.8908
554.1367	299.7042
554.2971	297.1086
554.4576	292.7044
554.618	286.4385
554.7785	295.0519
554.939	298.4784
555.0994	295.5518
555.2598	299.7469
555.4203	300.0544
555.5807	289.3276
555.7411	294.4453
555.9015	295.1598
556.0619	288.9583
556.2223	287.2796
556.3827	280.4671
556.5431	284.5407
556.7034	292.1876
556.8638	287.8252
557.0242	283.2347
557.1845	280.2412
557.3448	282.5344
557.5052	280.518
557.6655	284.3575
557.8259	281.779
557.9861	287.0356
558.1465	291.8
558.3068	284.0358
558.467	272.3584
558.6274	271.1899
558.7877	270.7214
558.9479	264.4845
559.1082	268.2589
559.2684	274.0524
559.4287	276.5392
559.5889	282.5846
559.7491	280.207
559.9094	276.043
560.0696	265.316
560.2299	270.1977
560.3901	272.191
560.5502	280.9492
560.7104	284.3455
560.8707	279.9583
561.0308	287.7568
561.191	291.4429
561.3511	278.9899
561.5114	274.9356
561.6714	266.9606
561.8316	270.9546
561.9918	270.795
562.1519	281.0917
562.312	275.9692
562.4722	275.5062
562.6323	268.0915
562.7924	274.4348
562.9525	277.2627
563.1125	282.3824
563.2726	278.4415
563.4327	282.8762
563.5928	276.1097
563.7528	271.9286
563.9129	272.8262
564.0729	272.1423
564.233	267.6561
564.393	273.951
564.553	283.2256
564.7131	276.4714
564.873	270.1117
565.0331	271.359
565.1931	273.7024
565.353	276.1595
565.5131	274.1597
565.673	270.361
565.833	263.2566
565.9929	255.5228
566.1529	259.8105
566.3129	257.0114
566.4728	264.0721
566.6328	266.428
566.7927	265.8105
566.9526	270.5992
567.1125	269.2473
567.2724	274.7144
567.4323	273.502
567.5922	281.0009
567.7521	270.7153
567.9119	270.655
568.0718	278.2678
568.2317	271.4489
568.3915	261.0132
568.5514	258.7839
568.7112	257.6585
568.871	261.9583
569.0309	258.1137
569.1907	259.7071
569.3505	265.2093
569.5103	269.837
569.6701	267.9297
569.8299	265.1716
569.9897	253.5427
570.1495	266.7509
570.3092	266.4845
570.469	261.8687
570.6287	255.3342
570.7885	251.7323
570.9482	248.6828
571.108	248.0823
571.2677	252.5386
571.4274	258.5808
571.5871	258.7848
571.7468	258.534
571.9066	263.0386
572.0662	268.5978
572.2259	278.4744
572.3856	275.4144
572.5452	268.0089
572.7049	265.7718
572.8646	267.0792
573.0242	270.1199
573.1838	263.8353
573.3435	268.8169
573.5031	265.9225
573.6627	267.1681
573.8223	272.8147
573.9819	266.9516
574.1415	261.9123
574.3011	268.1693
574.4607	261.8808
574.6203	260.6859
574.7798	260.69
574.9394	262.9977
575.099	259.641
575.2585	254.7504
575.418	260.2534
575.5776	255.7738
575.7371	260.1112
575.8966	256.157
576.0562	250.85
576.2156	250.5385
576.3751	251.2408
576.5346	251.7972
576.6941	256.8024
576.8536	256.4906
577.0131	258.3745
577.1725	252.8292
577.332	254.4155
577.4914	255.3182
577.6508	255.0911
577.8103	254.9705
577.9697	256.6444
578.1291	242.5378
578.2885	247.2097
578.4479	250.4255
578.6073	246.8465
578.7667	250.013
578.9261	251.6161
579.0854	250.3234
579.2448	250.2057
579.4042	252.824
579.5635	256.2125
579.7229	241.2523
579.8822	244.4595
580.0416	256.1322
580.2009	252.2416
580.3602	253.7014
580.5195	243.7206
580.6788	241.015
580.8381	249.6777
580.9974	244.8499
581.1566	246.5468
581.3159	242.7531
581.4752	251.1712
581.6345	242.5122
581.7937	248.7307
581.9529	241.7366
582.1122	242.337
582.2714	246.4638
582.4306	246.317
582.5898	247.9345
582.749	245.2487
582.9082	245.5956
583.0674	249.1218
583.2266	251.3587
583.3857	243.2554
583.5449	247.8331
583.7041	246.1864
583.8633	244.5593
584.0224	244.3178
584.1815	246.6075
584.3407	235.4343
584.4998	239.1855
584.6589	245.1931
584.818	245.2186
584.9771	247.1262
585.1362	240.3261
585.2953	237.1168
585.4544	239.5591
585.6135	238.9657
585.7725	237.191
585.9316	232.9693
586.0906	234.358
586.2497	239.841
586.4087	242.5818
586.5677	239.1698
586.7267	236.7303
586.8858	231.5237
587.0448	244.401
587.2038	240.6217
587.3628	238.1066
587.5218	237.4823
587.6807	228.7789
587.8397	236.1741
587.9987	228.7484
588.1577	228.7634
588.3166	224.2856
588.4755	228.1463
588.6345	226.8366
588.7934	214.8628
588.9523	202.8616
589.1112	201.956
589.2701	202.5263
589.429	203.1157
589.5879	207.1862
589.7468	205.9889
589.9056	203.72
590.0645	214.8204
590.2234	218.3385
590.3822	217.7486
590.5411	218.4945
590.6999	217.3752
590.8588	213.1952
591.0176	224.579
591.1764	224.4055
591.3352	223.8144
591.494	222.2282
591.6528	218.509
591.8116	216.4275
591.9703	215.6851
592.1291	211.6457
592.2878	214.6165
592.4467	213.9163
592.6053	216.0632
592.7641	223.121
592.9229	223.0087
593.0816	221.8717
593.2403	223.4258
593.399	218.0181
593.5577	213.5383
593.7164	218.5575
593.8751	217.8436
594.0338	220.2787
594.1924	229.0161
594.3511	222.9079
594.5098	213.6035
594.6684	213.399
594.8271	215.4514
594.9857	211.1461
595.1443	211.435
595.303	215.7009
595.4615	216.8023
595.6202	217.145
595.7787	223.9191
595.9374	226.0163
596.0959	216.4223
596.2545	219.402
596.4131	224.9796
596.5717	223.8801
596.7302	218.4989
596.8887	220.4914
597.0473	221.4196
597.2058	222.8253
597.3644	224.9176
597.5229	223.9467
597.6814	219.0795
597.8399	212.0614
597.9984	213.3819
598.1569	221.312
598.3154	218.1056
598.4738	210.5185
598.6323	206.9452
598.7908	216.4712
598.9492	222.0906
599.1076	213.5259
599.2661	220.1602
599.4245	221.623
599.5829	222.5984
599.7413	220.5497
599.8997	223.2756
600.0581	216.4461
600.2165	215.7099
600.3749	221.3523
600.5333	212.2057
600.6917	210.0428
600.85	211.7024
601.0084	210.8515
601.1667	215.712
601.325	212.0344
601.4833	214.9483
601.6417	219.9337
601.8	215.7734
601.9583	215.7008
602.1166	218.2592
602.2749	213.9296
602.4332	221.1004
602.5914	216.4904
602.7498	213.2575
602.908	213.0169
603.0662	217.2055
603.2245	222.9995
603.3828	222.2255
603.541	225.7509
603.6992	226.7825
603.8574	218.4691
604.0156	216.5685
604.1738	215.1764
604.332	214.1594
604.4902	214.6032
604.6484	210.5015
604.8065	211.2968
604.9647	217.9685
605.1229	222.0152
605.281	215.4685
605.4391	213.3805
605.5973	213.8304
605.7554	213.8498
605.9135	211.851
606.0717	209.0231
606.2297	208.5484
606.3878	211.4773
606.5459	208.8682
606.704	212.0417
606.8621	211.3309
607.0201	215.9071
607.1782	215.5955
607.3362	213.1846
607.4943	210.5187
607.6523	214.5847
607.8104	208.0899
607.9684	205.1429
608.1264	207.2081
608.2844	204.3815
608.4424	215.5026
608.6003	208.8843
608.7584	206.7925
608.9163	206.9616
609.0743	204.1933
609.2322	211.0921
609.3902	205.4095
609.5482	210.6154
609.7061	202.8244
609.864	208.9179
610.0219	204.89
610.1798	205.3921
610.3377	202.2467
610.4956	197.7938
610.6535	201.7294
610.8114	197.9863
610.9693	202.577
611.1271	199.7087
611.285	202.0647
611.4429	208.6301
611.6007	206.5965
611.7585	198.4344
611.9164	199.6361
612.0742	199.9491
612.232	197.7127
612.3898	196.8821
612.5476	203.074
612.7054	206.4021
612.8632	204.9787
613.0209	205.0029
613.1787	207.7531
613.3365	201.9719
613.4942	196.7871
613.652	200.6451
613.8097	192.4363
613.9674	186.999
614.1252	198.3242
614.2829	199.6614
614.4406	200.2116
614.5983	204.2137
614.756	199.0875
614.9136	196.9649
615.0714	196.4986
615.229	204.7609
615.3867	199.9814
615.5443	199.0024
615.702	192.7404
615.8596	196.9198
616.0172	195.1937
616.1748	189.3388
616.3325	185.1665
616.4901	185.1402
616.6476	183.1062
616.8052	186.1744
616.9628	183.4982
617.1204	189.3642
617.278	199.426
617.4355	202.7594
617.5931	199.3461
617.7506	190.7611
617.9081	186.0382
618.0657	191.3035
618.2232	195.6802
618.3807	194.1007
618.5382	194.7881
618.6957	196.642
618.8532	193.1911
619.0107	188.7831
619.1682	196.0298
619.3256	192.2059
619.4831	186.4729
619.6406	188.1679
619.798	190.7563
619.9554	196.3377
620.1129	198.6972
620.2703	191.1078
620.4277	197.6128
620.5851	194.0793
620.7425	188.1003
620.8998	185.5984
621.0573	182.849
621.2146	190.9602
621.372	184.8475
621.5294	182.887
621.6867	180.9579
621.8441	187.2478
622.0013	191.2215
622.1587	193.9064
622.316	182.7866
622.4733	187.2009
622.6306	184.0073
622.7879	187.9525
622.9452	186.3399
623.1025	184.7339
623.2598	179.5192
623.4171	182.7676
623.5743	189.7604
623.7316	182.822
623.8888	179.6796
624.046	189.8906
624.2032	190.3061
624.3605	190.9412
624.5176	188.9174
624.6749	178.4246
624.8321	171.5308
624.9893	178.991
625.1464	186.0376
625.3036	179.1428
625.4608	174.4361
625.6179	172.5347
625.7751	180.547
625.9322	183.1075
626.0894	180.1693
626.2465	183.3904
626.4036	184.4019
626.5607	182.1289
626.7178	183.2012
626.8749	181.8366
627.032	184.7421
627.189	181.4885
627.3461	184.2518
627.5032	184.3323
627.6602	181.9517
627.8173	176.5465
627.9743	168.3937
628.1313	175.2408
628.2884	178.7419
628.4454	176.9659
628.6024	173.8375
628.7594	180.048
628.9164	184.8463
629.0734	179.1821
629.2303	175.5239
629.3873	175.9104
629.5443	172.5644
629.7012	173.4808
629.8582	179.697
630.0151	171.819
630.172	163.5516
630.3289	166.7467
630.4858	177.3871
630.6428	179.9097
630.7996	178.2809
630.9565	178.3217
631.1134	180.78
631.2703	177.4435
631.4272	174.8308
631.584	172.1475
631.7408	168.9628
631.8977	174.8955
632.0546	172.7467
632.2114	173.1437
632.3682	176.721
632.525	178.1627
632.6818	180.775
632.8386	170.5108
632.9954	171.78
633.1522	181.5163
633.3089	171.3571
633.4657	178.2762
633.6224	177.6189
633.7792	173.1124
633.9359	169.2456
634.0927	169.741
634.2494	171.2734
634.4061	173.2943
634.5628	177.6012
634.7195	175.9254
634.8762	174.4398
635.0329	173.4397
635.1895	170.3713
635.3462	172.9412
635.5029	174.2654
635.6595	178.3708
635.8162	178.8012
635.9728	174.0634
636.1295	169.4849
636.2861	163.2336
636.4427	168.8549
636.5992	169.2739
636.7559	167.2917
636.9124	165.8347
637.069	166.4865
637.2256	174.7714
637.3821	174.8808
637.5387	173.5959
637.6953	177.264
637.8518	177.8825
638.0084	173.2271
638.1649	173.2354
638.3214	174.4569
638.4779	171.4925
638.6344	167.8049
638.7909	166.8948
638.9474	169.7806
639.1038	181.4607
639.2603	177.3651
639.4167	174.4429
639.5732	167.4306
639.7297	163.1715
639.8861	164.727
640.0425	170.0722
640.199	170.8245
640.3553	174.4428
640.5118	170.7483
640.6682	162.3237
640.8245	164.6204
640.981	163.5563
641.1373	164.5881
641.2936	166.4398
641.45	163.8959
641.6064	161.867
641.7627	159.6088
641.9191	157.28
642.0754	160.5967
642.2317	161.9603
642.388	166.58
642.5443	165.7278
642.7006	166.7367
642.8569	174.2188
643.0131	169.7166
643.1694	170.061
643.3257	166.5759
643.4819	162.6284
643.6382	162.1214
643.7944	167.2117
643.9506	160.0585
644.1069	154.1533
644.2631	162.2103
644.4193	159.5551
644.5754	154.3553
644.7316	162.3802
644.8878	165.6954
645.044	166.4069
645.2002	162.8408
645.3563	164.7074
645.5125	164.7977
645.6686	157.419
645.8248	149.7431
645.9809	155.7419
646.137	154.7985
646.2931	153.9549
646.4492	157.4757
646.6053	151.867
646.7614	158.2716
646.9174	153.2954
647.0735	148.7057
647.2296	152.0275
647.3856	151.2669
647.5417	149.9005
647.6977	150.3619
647.8537	155.7626
648.0098	145.1237
648.1658	147.2532
648.3218	153.3052
648.4777	150.5619
648.6337	153.0181
648.7897	155.1655
648.9457	155.7192
649.1016	151.8631
649.2576	150.8511
649.4135	145.3343
649.5695	137.6467
649.7254	139.6283
649.8813	145.9343
650.0372	151.8291
650.1932	159.5362
650.3491	152.6288
650.5049	152.1466
650.6608	148.1483
650.8167	153.3834
650.9725	151.9429
651.1284	153.9715
651.2842	154.6816
651.4401	155.0326
651.5959	140.78
651.7518	145.4764
651.9076	146.7213
652.0634	142.9849
652.2192	148.6709
652.3749	151.2045
652.5308	153.4025
652.6865	153.9725
652.8423	146.5407
652.998	149.0116
653.1538	152.2312
653.3096	151.3004
653.4653	155.4528
653.621	149.2001
653.7767	150.7872
653.9324	152.3651
654.0881	146.4478
654.2438	145.8518
654.3995	146.2288
654.5552	142.3937
654.7109	146.2889
654.8665	154.5569
655.0222	145.5449
655.1778	146.0719
655.3334	146.3593
655.4891	144.3731
655.6447	142.1635
655.8003	144.0132
655.9559	134.1837
656.1115	128.6696
656.2671	114.0525
656.4227	113.1887
656.5782	118.2172
656.7338	128.324
656.8893	138.2102
657.0449	141.0479
657.2004	139.0831
657.356	139.4724
657.5115	144.608
657.667	149.002
657.8225	151.0195
657.978	150.093
658.1335	148.5425
658.289	148.6898
658.4445	149.8776
658.5999	144.4118
658.7554	146.385
658.9108	145.8562
659.0663	145.6345
659.2217	144.1317
659.3771	148.7677
659.5325	142.3473
659.6879	137.0282
659.8433	137.3772
659.9987	143.3807
660.1541	151.5295
660.3095	149.602
660.4648	149.0548
660.6202	146.3309
660.7756	147.9743
660.9309	146.9673
661.0862	146.5173
661.2416	149.3865
661.3969	149.854
661.5522	146.2192
661.7075	143.3924
661.8628	149.0681
662.0181	147.9218
662.1733	141.896
662.3286	138.6737
662.4839	146.1692
662.6391	146.0173
662.7944	143.0977
662.9496	145.9077
663.1048	143.392
663.26	142.4937
663.4152	144.8903
663.5704	142.8836
663.7256	150.3521
663.8808	147.6906
664.036	148.6322
664.1912	140.2209
664.3463	146.1158
664.5015	153.1197
664.6566	145.4678
664.8118	145.4821
664.9669	144.3076
665.122	146.5734
665.2771	145.6798
665.4322	147.1123
665.5873	141.5536
665.7424	148.6196
665.8975	144.5584
666.0526	143.9599
666.2076	143.6588
666.3627	140.1911
666.5177	140.1591
666.6727	142.3402
666.8278	138.4997
666.9828	140.5798
667.1378	140.561
667.2928	135.8365
667.4478	142.6813
667.6028	139.5196
667.7578	138.0793
667.9127	144.0489
668.0677	144.9157
668.2226	142.6567
668.3776	144.7716
668.5325	140.7207
668.6874	137.2572
668.8423	141.3631
668.9973	138.1316
669.1522	141.4605
669.3071	140.1432
669.4619	140.9695
669.6168	144.7472
669.7717	135.9322
669.9265	137.6617
670.0814	137.0861
670.2362	139.0558
670.3911	136.884
670.5459	143.2042
670.7007	143.7402
670.8555	136.2914
671.0103	137.6624
671.1651	136.8092
671.3199	135.7642
671.4747	132.7669
671.6295	135.0951
671.7842	132.9427
671.939	134.194
672.0937	132.0949
672.2484	132.8971
672.4031	136.7742
672.5579	132.7514
672.7126	140.1021
672.8673	139.3148
673.022	134.5163
673.1767	134.6699
673.3314	137.4958
673.486	133.9514
673.6407	134.3566
673.7953	136.8383
673.95	134.643
674.1046	135.6061
674.2592	134.6491
674.4138	131.8704
674.5684	131.618
674.723	131.8011
674.8776	137.7339
675.0322	136.4015
675.1868	132.7491
675.3414	134.8519
675.4959	126.86
675.6505	128.5511
675.805	125.8842
675.9595	125.9262
676.1141	135.4787
676.2686	135.0445
676.4231	133.8059
676.5776	125.892
676.7321	129.6151
676.8866	125.5693
677.041	123.039
677.1955	133.5274
677.35	133.8548
677.5044	135.5027
677.6589	133.7989
677.8133	134.6206
677.9677	127.0677
678.1221	126.7553
678.2766	134.3667
678.4309	126.4259
678.5853	124.9362
678.7397	120.0611
678.8941	125.8825
679.0485	126.2594
679.2028	124.9099
679.3571	131.2171
679.5115	127.4018
679.6658	123.7551
679.8201	128.8314
679.9744	131.1569
680.1288	122.3817
680.2831	124.1243
680.4373	126.2672
680.5916	123.2938
680.7459	118.9743
680.9001	124.0457
681.0544	125.1812
681.2087	129.4211
681.3629	127.7429
681.5171	123.7055
681.6713	122.7126
681.8256	128.31
681.9797	129.0534
682.134	120.1027
682.2881	121.138
682.4423	124.3505
682.5965	125.0688
682.7507	124.9106
682.9048	118.4229
683.059	121.2307
683.2131	117.524
683.3672	116.9606
683.5213	122.1739
683.6754	120.2159
683.8295	121.7496
683.9836	117.981
684.1377	119.4499
684.2918	122.8523
684.4459	120.7938
684.5999	124.3869
684.754	118.9726
684.908	115.0269
685.062	109.3842
685.2161	116.2854
685.3701	108.935
685.5241	115.5915
685.6781	114.3193
685.8321	114.8949
685.9861	112.9456
686.14	113.5853
686.294	114.2435
686.4479	106.9744
686.6019	100.3586
686.7559	98.38926
686.9098	89.34041
687.0637	88.03983
687.2176	89.03809
687.3715	89.13269
687.5254	95.12536
687.6793	97.1619
687.8332	97.86118
687.9871	103.6922
688.1409	106.3658
688.2947	103.2454
688.4486	101.6023
688.6024	99.07468
688.7563	98.33531
688.9101	100.3266
689.0639	101.7741
689.2177	99.27574
689.3715	102.2868
689.5253	99.48098
689.6791	98.81072
689.8328	97.95074
689.9866	97.26866
690.1403	102.8652
690.2941	101.9025
690.4478	98.14189
690.6015	100.9849
690.7552	104.9168
690.9089	104.3236
691.0626	101.5356
691.2164	106.455
691.37	104.3548
691.5237	103.2157
691.6774	104.5567
691.831	102.3418
691.9847	106.1222
692.1383	103.6483
692.2919	100.5294
692.4456	106.2561
692.5992	102.8154
692.7527	104.2972
692.9064	106.0023
693.0599	104.9777
693.2136	105.952
693.3671	106.2778
693.5207	102.6364
693.6742	104.0167
693.8278	98.1804
693.9813	99.77988
694.1348	95.67581
694.2883	95.93858
694.4418	97.14658
694.5953	101.8388
694.7488	105.3817
694.9023	101.2669
695.0558	100.4847
695.2093	99.7785
695.3627	101.5812
695.5162	103.5889
695.6696	99.94691
695.8231	99.56925
695.9764	101.127
696.1299	101.9683
696.2833	103.5644
696.4367	105.2878
696.5901	105.1374
696.7435	106.3578
696.8968	107.0011
697.0502	106.0118
697.2036	108.1006
697.3569	100.3335
697.5102	100.1858
697.6635	100.081
697.8168	97.51261
697.9702	99.30842
698.1235	102.6109
698.2768	104.3065
698.4301	102.9794
698.5833	102.3477
698.7366	101.3382
698.8898	96.63758
699.0431	96.97128
699.1964	102.584
699.3495	100.8448
699.5028	101.4534
699.656	102.3392
699.8092	99.25591
699.9624	102.0479
700.1156	99.16679
700.2688	100.7186
700.4219	94.08627
700.5751	90.83282
700.7283	94.24306
700.8814	98.56115
701.0345	96.75143
701.1877	95.82424
701.3408	96.80222
701.4939	96.21407
701.647	96.50086
701.8001	96.31747
701.9532	101.7722
702.1063	96.59902
702.2593	95.82005
702.4124	97.61084
702.5654	96.81952
702.7184	96.0423
702.8715	98.01083
703.0245	93.97324
703.1776	97.92718
703.3305	98.42294
703.4835	100.5043
703.6365	101.3665
703.7895	96.2867
703.9424	96.59813
704.0954	97.644
704.2484	98.76791
704.4013	99.68155
704.5543	99.07621
704.7072	101.2633
704.8601	103.1512
705.013	102.6751
705.1659	97.35827
705.3188	95.0981
705.4717	105.8707
705.6246	102.8945
705.7774	97.59924
705.9303	98.84098
706.0831	102.2478
706.236	101.0534
706.3888	97.59618
706.5416	94.36459
706.6944	102.6321
706.8472	101.8959
707	96.63876
707.1528	98.10692
707.3056	99.79099
707.4583	101.6181
707.6111	103.395
707.7639	100.0189
707.9166	95.58308
708.0693	100.2652
708.222	97.63239
708.3748	97.38329
708.5275	96.83466
708.6802	97.62098
708.8328	96.3092
708.9855	99.42169
709.1382	101.4725
709.2909	101.4148
709.4435	98.98954
709.5962	95.16505
709.7488	97.06371
709.9014	102.2292
710.054	95.02863
710.2067	93.28488
710.3593	94.9868
710.5118	97.87805
710.6644	97.43624
710.817	94.64478
710.9695	96.26832
711.1221	100.1731
711.2747	93.43045
711.4272	91.80824
711.5797	97.57949
711.7322	93.188
711.8848	95.78124
712.0373	95.22506
712.1898	95.0438
712.3422	95.94716
712.4948	94.8813
712.6472	93.86662
712.7996	90.90387
712.9521	96.22472
713.1046	100.0651
713.257	93.01952
713.4094	87.46037
713.5618	90.35645
713.7142	88.41506
713.8666	89.37178
714.019	92.88828
714.1714	97.21297
714.3237	94.14057
714.4761	94.38694
714.6285	92.61706
714.7808	88.30337
714.9331	87.56419
715.0854	90.92953
715.2378	88.22408
715.3901	89.59572
715.5424	89.72482
715.6947	93.96705
715.8469	92.0166
715.9992	95.23457
716.1515	91.0386
716.3037	85.07031
716.456	86.05082
716.6082	88.33295
716.7604	81.50436
716.9127	83.24051
717.0649	76.26494
717.2171	74.89523
717.3693	80.42039
717.5214	78.53279
717.6736	84.09172
717.8258	81.02303
717.978	77.2501
718.1301	79.38618
718.2822	78.51588
718.4344	75.42522
718.5865	75.4034
718.7386	69.18851
718.8907	72.72481
719.0428	81.72487
719.1949	77.62661
719.3469	72.74009
719.499	71.94033
719.6511	73.01089
719.8031	70.64981
719.9551	71.51405
720.1072	73.33965
720.2592	75.98769
720.4112	77.12181
720.5632	77.69288
720.7152	76.60321
720.8672	79.32164
721.0192	82.81422
721.1711	81.49332
721.3231	80.97361
721.475	81.88953
721.627	83.43975
721.7789	83.7655
721.9308	84.2606
722.0828	81.65897
722.2347	87.64821
722.3866	87.01851
722.5385	78.2155
722.6903	77.03782
722.8422	81.30894
722.9941	86.06738
723.1459	78.51763
723.2977	77.00429
723.4496	72.05492
723.6014	71.66899
723.7532	75.9405
723.905	79.20736
724.0568	77.79776
724.2086	82.12029
724.3604	79.98722
724.5121	77.76834
724.6639	77.17813
724.8157	77.79211
724.9674	79.3243
725.1191	76.15685
725.2709	72.46635
725.4226	71.6417
725.5743	71.46062
725.726	79.23552
725.8777	80.79383
726.0294	76.92204
726.181	74.32352
726.3327	75.9938
726.4844	73.04579
726.636	77.46611
726.7877	78.54747
726.9393	75.63697
727.0909	74.64608
727.2425	76.53874
727.3941	74.23589
727.5457	73.17365
727.6973	73.62061
727.8488	68.36104
728.0004	70.27681
728.1519	75.4695
728.3035	74.75315
728.455	76.00588
728.6066	78.30675
728.7581	74.46309
728.9095	77.93079
729.0611	75.2581
729.2126	74.0691
729.364	71.91849
729.5155	77.84856
729.667	74.7231
729.8184	75.42404
729.9698	76.09695
730.1213	76.28163
730.2727	71.47374
730.4241	70.50656
730.5756	76.00237
730.7269	76.74514
730.8784	72.90707
731.0297	75.01175
731.1811	76.50072
731.3325	80.48152
731.4838	77.97021
731.6351	76.11033
731.7865	73.79686
731.9378	75.89198
732.0891	76.61473
732.2404	78.8394
732.3917	77.45139
732.543	75.08718
732.6943	71.63629
732.8456	75.92999
732.9968	79.14374
733.1481	80.32404
733.2993	86.75636
733.4506	81.5479
733.6018	77.56821
733.753	80.41471
733.9042	86.15781
734.0554	83.147
734.2066	85.90112
734.3578	83.56794
734.509	82.21938
734.6602	79.86333
734.8113	81.36719
734.9624	75.75047
735.1136	71.81472
735.2647	77.14105
735.4158	80.21629
735.5669	78.7561
735.718	77.48032
735.8691	79.4624
736.0201	81.52516
736.1713	83.09927
736.3223	78.2775
736.4733	75.4823
736.6244	77.60887
736.7755	77.31065
736.9265	81.90756
737.0775	76.84322
737.2285	82.31748
737.3795	83.85368
737.5305	79.73428
737.6815	75.46569
737.8324	76.50692
737.9834	77.04224
738.1343	71.89323
738.2853	72.11
738.4362	80.42686
738.5871	77.32959
738.738	74.54718
738.8889	79.66546
739.0399	74.72213
739.1907	75.89098
739.3416	77.45711
739.4925	73.89782
739.6433	78.21272
739.7942	77.44865
739.945	78.67241
740.0958	71.15254
740.2467	78.23324
740.3975	72.83693
740.5483	81.34753
740.6991	78.42849
740.8499	70.10337
741.0007	75.86514
741.1514	79.09393
741.3022	79.8168
741.4529	82.57432
741.6036	77.45631
741.7544	75.96941
741.9051	77.39505
742.0558	77.01929
742.2065	78.43068
742.3572	74.68831
742.5079	74.41102
742.6586	78.76494
742.8093	76.72763
742.9599	72.27887
743.1105	73.65434
743.2612	78.52182
743.4118	77.09946
743.5624	74.42984
743.7131	74.76048
743.8636	78.47277
744.0142	75.56901
744.1648	70.45892
744.3154	75.00767
744.4659	72.56239
744.6165	75.71555
744.767	75.1267
744.9176	74.45568
745.0681	78.22216
745.2186	78.60107
745.3691	76.46423
745.5197	73.16872
745.6702	74.32593
745.8206	77.82118
745.9711	77.48246
746.1215	76.75829
746.272	74.37646
746.4224	75.73589
746.5729	77.36318
746.7233	73.55575
746.8737	78.4288
747.0241	74.29411
747.1745	75.71986
747.3249	80.87923
747.4753	75.76934
747.6257	71.44596
747.776	74.97627
747.9264	69.79285
748.0767	69.91383
748.2271	74.75396
748.3774	69.04678
748.5276	69.52267
748.678	77.07951
748.8282	73.08508
748.9786	68.96191
749.1288	71.5685
749.2791	71.87711
749.4294	73.00963
749.5796	69.77958
749.7299	72.56181
749.8801	73.42195
750.0303	71.71178
750.1805	73.90473
750.3307	68.86916
750.4809	66.32185
750.6311	70.13328
750.7813	71.15694
750.9314	70.49837
751.0816	69.10364
751.2318	72.1157
751.3818	72.74577
751.532	72.15669
751.6821	70.93748
751.8322	69.29205
751.9823	68.89021
752.1324	66.52922
752.2825	70.62855
752.4326	66.43795
752.5826	64.72208
752.7327	67.81165
752.8827	68.78843
753.0327	76.95856
753.1827	71.06043
753.3328	69.75118
753.4828	64.33024
753.6328	71.89869
753.7828	71.20803
753.9327	69.76585
754.0827	69.97033
754.2327	71.77415
754.3826	72.39199
754.5325	67.68259
754.6825	67.37181
754.8324	67.20741
754.9823	63.95847
755.1322	65.67975
755.2821	63.45524
755.432	58.51662
755.5818	59.53532
755.7318	64.59529
755.8816	65.40341
756.0314	63.66866
756.1813	67.76427
756.3311	68.32158
756.4809	69.44887
756.6307	65.5118
756.7805	63.64063
756.9303	64.39042
757.0801	63.36783
757.2299	65.10564
757.3796	68.8871
757.5294	66.85705
757.6791	71.03791
757.8289	68.22735
757.9786	65.22136
758.1283	61.42568
758.278	66.25836
758.4277	62.57538
758.5773	64.76262
758.7271	62.87243
758.8767	61.22821
759.0264	59.58755
759.176	60.68524
759.3256	62.35516
759.4753	54.46504
759.6249	40.28029
759.7745	37.38451
759.9241	32.10226
760.0737	32.41088
760.2233	27.63486
760.3729	30.55359
760.5224	28.36739
760.6719	31.20036
760.8215	30.03616
760.971	30.85043
761.1205	30.53282
761.2701	31.66728
761.4196	36.33858
761.5691	37.71508
761.7186	43.2509
761.868	46.37065
762.0175	47.83583
762.167	46.33307
762.3164	43.91741
762.4659	40.41861
762.6153	36.09857
762.7647	37.50028
762.9141	31.72954
763.0635	36.25698
763.2129	36.79849
763.3623	42.13104
763.5117	36.34506
763.661	37.74488
763.8104	38.94675
763.9597	39.13351
764.1091	40.54948
764.2584	42.46024
764.4077	40.938
764.557	47.0079
764.7063	39.45607
764.8556	40.83477
765.0049	42.68126
765.1541	43.70871
765.3034	42.16745
765.4526	45.04964
765.6019	45.71463
765.7511	46.91245
765.9003	49.17541
766.0496	44.76468
766.1987	53.2372
766.348	52.4883
766.4971	52.50054
766.6463	50.20775
766.7955	49.09619
766.9446	50.97514
767.0938	52.40436
767.2429	50.57674
767.392	55.97684
767.5411	52.83383
767.6902	52.43385
767.8394	50.55441
767.9884	48.72623
768.1375	50.62312
768.2866	55.63359
768.4356	53.67549
768.5847	55.84635
768.7337	55.14158
768.8828	55.26178
769.0317	53.91295
769.1808	53.44654
769.3298	57.76875
769.4788	55.85055
769.6277	56.00124
769.7767	51.04113
769.9257	54.93252
770.0746	52.43827
770.2236	49.15688
770.3725	50.68815
770.5214	51.90702
770.6703	55.06105
770.8193	57.45841
770.9681	57.49553
771.1171	56.9999
771.2659	52.06948
771.4148	51.47624
771.5637	52.86124
771.7125	54.47038
771.8613	52.45338
772.0101	54.45674
772.159	53.11165
772.3078	49.96022
772.4566	51.43478
772.6054	53.05896
772.7542	49.18925
772.903	47.67756
773.0517	55.24127
773.2004	55.72465
773.3492	52.10011
773.4979	46.90812
773.6467	51.83024
773.7953	50.53281
773.944	49.79523
774.0928	57.75784
774.2415	56.62127
774.3901	54.23339
774.5388	49.37815
774.6874	54.2826
774.8361	54.19677
774.9847	48.08961
775.1334	48.98961
775.282	54.73866
775.4305	53.31921
775.5792	49.96815
775.7277	55.75635
775.8763	53.12882
776.0249	55.78917
776.1735	55.48021
776.322	50.05826
776.4705	55.38201
776.6191	53.25914
776.7676	59.15966
776.9161	51.19016
777.0646	55.60386
777.2131	53.73156
777.3616	49.97643
777.5101	50.25361
777.6585	54.04469
777.8069	50.20167
777.9554	47.99492
778.1038	46.18513
778.2523	54.69889
778.4007	52.30732
778.5491	52.21889
778.6974	46.99327
778.8459	51.87473
778.9942	55.69328
779.1426	52.91411
779.291	48.26925
779.4393	50.90171
779.5876	46.3511
779.736	44.61347
779.8843	48.98796
780.0326	49.77532
780.1809	52.95582
780.3292	48.47163
780.4775	46.32362
780.6257	45.74363
780.774	48.28588
780.9222	50.48496
781.0704	45.32428
781.2187	48.56193
781.3669	49.23624
781.5151	46.41767
781.6633	44.1613
781.8115	45.7742
781.9597	47.36361
782.1078	46.54789
782.256	50.36228
782.4042	52.08102
782.5523	49.65177
782.7004	51.85477
782.8486	48.67737
782.9967	47.22749
783.1448	52.38436
783.2929	49.15902
783.441	49.22889
783.5891	51.82315
783.7371	50.69812
783.8851	48.45107
784.0332	49.70183
784.1812	43.34645
784.3293	46.23745
784.4773	42.21743
784.6253	47.6208
784.7733	48.6955
784.9213	44.87675
785.0692	46.44674
785.2172	51.74283
785.3652	47.94693
785.5131	40.669
785.6611	45.49886
785.809	41.49898
785.9569	43.23512
786.1048	47.4449
786.2527	50.22297
786.4006	45.96446
786.5485	44.4168
786.6964	41.57753
786.8442	47.52274
786.9921	49.88294
787.1399	48.90283
787.2877	43.15705
787.4355	45.93234
787.5833	44.63628
787.7311	42.47102
787.8789	45.91444
788.0267	48.54469
788.1745	46.93529
788.3223	44.91899
788.47	40.94667
788.6177	39.19509
788.7654	41.97208
788.9132	44.61526
789.0609	43.97503
789.2086	43.44753
789.3563	45.40189
789.504	45.57589
789.6517	47.20243
789.7993	41.44852
789.947	39.71925
790.0946	39.93684
790.2422	47.23275
790.3898	38.88009
790.5375	37.56828
790.6851	41.89437
790.8326	39.12343
790.9802	39.74833
791.1278	43.17722
791.2754	41.97634
791.423	43.35769
791.5705	41.949
791.718	42.37515
791.8655	41.0242
792.0131	41.41222
792.1606	41.97065
792.308	36.9698
792.4556	43.37257
792.603	43.41951
792.7505	45.17876
792.8979	46.5551
793.0454	44.69624
793.1928	42.15383
793.3403	42.53125
793.4877	41.46738
793.6351	41.25547
793.7825	39.37033
793.9299	39.00089
794.0772	38.5225
794.2246	42.27019
794.3719	42.16222
794.5193	40.63246
794.6666	37.82393
794.814	45.93695
794.9613	42.40266
795.1086	38.91431
795.2559	39.63711
795.4032	43.56714
795.5505	41.67738
795.6978	42.31821
795.845	39.47313
795.9922	38.31101
796.1395	44.24556
796.2867	41.97775
796.4339	45.23101
796.5811	45.2297
796.7283	34.88437
796.8755	35.14477
797.0227	39.00707
797.1699	41.43051
797.317	39.58672
797.4642	43.29565
797.6113	43.13768
797.7584	42.10501
797.9056	37.62407
798.0527	37.62359
798.1998	42.18141
798.3469	39.17914
798.494	35.49453
798.641	34.41231
798.7881	40.94922
798.9351	40.08185
799.0822	35.25452
799.2292	35.56194
799.3762	39.21042
799.5232	37.81039
799.6702	41.5867
799.8172	40.34834
799.9642	40.07372
800.1111	37.37631
800.2581	36.40298
800.4051	38.39274
800.552	39.84387
800.6989	37.29609
800.8458	37.01018
800.9927	36.28323
801.1396	38.19175
801.2866	36.54383
801.4334	37.5996
801.5803	37.25133
801.7272	40.33092
801.874	36.17498
802.0209	33.88286
802.1677	33.52044
802.3145	34.76748
802.4613	32.07026
802.6081	33.58295
802.7549	35.85585
802.9017	32.92384
803.0485	35.00444
803.1952	36.05431
803.342	36.49525
803.4887	38.92694
803.6354	39.80403
803.7822	40.23915
803.9289	37.78818
804.0756	41.54752
804.2223	39.51886
804.369	37.61913
804.5156	35.47471
804.6623	33.43669
804.8089	32.4094
804.9556	33.94916
805.1022	35.82111
805.2488	40.36648
805.3954	36.06215
805.542	32.00203
805.6886	33.84809
805.8352	36.03518
805.9818	41.2473
806.1283	34.44224
806.2749	36.17227
806.4214	36.13704
806.5679	36.87895
806.7145	34.14518
806.861	33.3612
807.0074	35.27474
807.154	36.03548
807.3004	37.33582
807.4469	31.89266
807.5934	27.26951
807.7398	34.53813
807.8862	30.07876
808.0327	31.11209
808.1791	31.96925
808.3255	35.00111
808.4719	38.02769
808.6183	36.55369
808.7647	33.94567
808.9111	34.70362
809.0574	32.53519
809.2037	30.85946
809.3501	33.5309
809.4965	34.35043
809.6428	33.48715
809.7891	32.18246
809.9354	34.69712
810.0817	32.97745
810.2279	30.6952
810.3742	37.37411
810.5204	32.79674
810.6667	32.96284
810.8129	29.74514
810.9592	28.79259
811.1054	31.09017
811.2516	35.02041
811.3978	34.7159
811.5439	31.29395
811.6901	35.16344
811.8363	32.28967
811.9825	34.39789
812.1286	31.65821
812.2748	30.50369
812.4209	27.18053
812.567	28.50976
812.7131	32.69763
812.8592	26.40945
813.0053	29.10208
813.1514	29.21755
813.2974	30.78862
813.4435	27.26979
813.5895	27.73584
813.7356	27.76797
813.8816	32.53568
814.0276	34.572
814.1736	29.26796
814.3196	28.13222
814.4656	26.9791
814.6116	29.40195
814.7576	31.51331
814.9035	23.18372
815.0494	23.76179
815.1954	29.84184
815.3413	29.44501
815.4872	25.83289
815.6331	22.16079
815.779	28.16626
815.9249	31.6292
816.0707	28.32546
816.2166	25.80701
816.3625	25.03324
816.5083	25.55804
816.6542	26.87291
816.8	24.39315
816.9458	27.39636
817.0916	26.84063
817.2374	29.78221
817.3832	27.69872
817.5289	27.36074
817.6747	25.52883
817.8204	24.87684
817.9662	25.50157
818.1119	25.85562
818.2576	25.365
818.4034	28.62832
818.5491	30.69708
818.6948	24.0146
818.8405	29.13813
818.9861	30.6965
819.1318	27.47893
819.2774	27.31247
819.423	27.09131
819.5687	29.12034
819.7143	26.21415
819.8599	23.687
820.0055	25.24359
820.1511	26.95281
820.2967	21.67986
820.4422	26.98152
820.5878	29.56738
820.7333	28.20539
820.8788	24.14524
821.0244	27.41696
821.1699	22.91696
821.3154	24.04311
821.4609	31.09306
821.6064	24.91306
821.7519	25.47338
821.8973	26.85372
822.0428	24.21426
822.1882	25.25401
822.3337	25.90609
822.4791	26.59155
822.6245	18.91648
822.7699	20.37948
822.9153	18.24562
823.0607	23.76371
823.2061	20.59565
823.3514	18.21636
823.4968	19.13974
823.6422	26.15233
823.7875	24.24139
823.9328	22.23539
824.0781	19.96976
824.2234	23.26469
824.3687	23.70524
824.514	28.0772
824.6592	26.05241
824.8045	26.33471
824.9498	29.40972
825.095	30.93308
825.2402	24.82743
825.3854	22.075
825.5306	22.32898
825.6758	24.22144
825.821	24.30974
825.9662	26.27203
826.1114	24.40803
826.2565	25.3249
826.4017	23.03751
826.5468	23.66347
826.692	28.88811
826.837	29.87117
826.9822	25.2324
827.1273	25.41887
827.2723	23.04426
827.4174	24.17718
827.5625	23.83911
827.7075	21.94429
827.8526	23.30461
827.9976	24.15316
828.1426	21.4802
828.2877	24.34871
828.4327	26.40953
828.5776	24.79556
828.7227	27.13192
828.8676	28.21372
829.0126	26.16476
829.1575	19.91817
829.3024	28.39487
829.4474	26.03909
829.5923	22.18052
829.7372	23.53808
829.8821	21.92163
830.027	25.44892
830.1719	25.9375
830.3168	25.58484
830.4616	23.08642
830.6064	22.23896
830.7513	28.09731
830.8961	27.87127
831.041	22.36212
831.1857	30.33216
831.3306	25.57431
831.4753	26.33902
831.6201	28.12662
831.7649	25.95397
831.9096	23.70199
832.0544	20.78163
832.1991	22.43003
832.3438	23.10196
832.4885	23.37131
832.6332	23.92163
832.778	24.86426
832.9226	18.86083
833.0673	23.54979
833.2119	23.49062
833.3566	22.77925
833.5012	27.36014
833.6459	22.8673
833.7905	23.96797
833.9351	24.31368
834.0797	21.16535
834.2243	22.87831
834.3688	27.33284
834.5134	24.38054
834.658	26.26974
834.8026	26.96232
834.9471	19.73217
835.0916	28.10817
835.2361	24.24429
835.3806	22.21801
835.5251	26.04591
835.6696	27.41329
835.8141	21.89878
835.9586	21.68864
836.103	22.72834
836.2474	17.64614
836.3918	22.48154
836.5363	24.13963
836.6807	25.82177
836.8251	26.9117
836.9695	23.02818
837.1138	20.00635
837.2582	20.01015
837.4026	24.3822
837.5469	21.74759
837.6913	17.98092
837.8356	21.46107
837.9799	21.19291
838.1242	26.9579
838.2686	29.48854
838.4128	29.23798
838.5571	23.79103
838.7014	25.20842
838.8456	24.82796
838.9899	25.16559
839.1341	19.93936
839.2783	16.37446
839.4225	23.78671
839.5667	25.83389
839.7109	24.77606
839.8551	23.59492
839.9993	19.58687
840.1434	16.69963
840.2876	23.43634
840.4317	23.91432
840.5759	22.24926
840.72	22.77509
840.8641	21.23164
841.0082	18.13386
841.1523	19.76882
841.2963	17.6751
841.4404	21.30531
841.5845	19.40137
841.7285	24.02171
841.8726	20.95147
842.0165	20.91155
842.1606	21.482
842.3046	21.02762
842.4485	24.87012
842.5925	18.78575
842.7365	21.74047
842.8805	25.98986
843.0244	21.5641
843.1684	19.16595
843.3123	22.02626
843.4562	19.99744
843.6002	21.45956
843.744	23.04898
843.8879	19.44969
844.0318	20.96277
844.1757	22.2674
844.3195	24.79895
844.4634	23.51196
844.6072	20.44321
844.751	21.97548
844.8948	24.38634
845.0386	22.03325
845.1824	21.4353
845.3262	28.141
845.47	26.58837
845.6138	23.20385
845.7575	20.29524
845.9012	16.6573
846.045	18.28057
846.1887	24.3666
846.3324	18.63943
846.4761	19.31085
846.6198	21.78097
846.7635	24.2899
846.9071	23.86783
847.0508	22.94156
847.1944	23.24822
847.3381	20.87106
847.4817	19.68678
847.6253	18.12488
847.7689	20.58249
847.9125	24.46365
848.0561	21.68181
848.1996	20.64936
848.3432	22.07557
848.4868	18.13861
848.6303	19.86879
848.7738	21.90165
848.9174	18.81985
849.0609	19.4636
849.2043	19.84124
849.3478	21.27789
849.4913	19.23799
849.6348	19.81895
849.7782	16.50122
849.9217	18.35496
850.0651	19.6259
850.2086	18.60294
850.3519	21.16482
850.4954	20.63655
850.6387	17.60234
850.7821	16.6821
850.9255	19.07723
851.0688	22.19513
851.2122	19.74057
851.3555	20.49016
851.4988	23.06435
851.6422	17.98574
851.7855	18.31393
851.9288	16.2369
852.0721	21.51737
852.2153	17.75758
852.3586	21.89692
852.5018	20.35052
852.6451	19.46227
852.7883	20.14274
852.9315	21.06252
853.0748	18.54954
853.218	23.89163
853.3611	22.83675
853.5043	20.05342
853.6475	18.04234
853.7906	15.05484
853.9338	16.47012
854.0769	17.50333
854.22	18.91472
854.3632	17.07425
854.5063	11.49083
854.6494	15.69048
854.7924	17.83824
854.9355	19.49395
855.0786	19.00083
855.2216	19.93288
855.3647	18.39394
855.5077	19.35604
855.6507	17.93083
855.7937	16.22876
855.9367	21.73668
856.0797	19.66709
856.2227	17.2274
856.3657	19.83925
856.5086	21.53934
856.6516	18.52446
856.7945	16.48821
856.9374	17.33163
857.0803	18.45415
857.2232	17.93603
857.3661	21.66278
857.509	17.75944
857.6519	17.15337
857.7947	16.6485
857.9376	19.18124
858.0804	20.42529
858.2232	17.51113
858.366	15.07187
858.5089	18.66838
858.6516	18.57859
858.7944	16.0948
858.9372	19.08021
859.08	19.20748
859.2227	17.28193
859.3654	14.80687
859.5082	15.62057
859.6509	19.68408
859.7936	18.36841
859.9363	17.49796
860.079	14.75411
860.2217	17.11106
860.3643	15.87934
860.507	18.6454
860.6496	16.23933
860.7922	16.71529
860.9349	14.9374
861.0775	15.36165
861.2201	16.71718
861.3627	12.38763
861.5052	18.78686
861.6478	17.50023
861.7904	22.19653
861.9329	18.8905
862.0755	19.55399
862.218	16.75256
862.3605	19.67213
862.503	16.15803
862.6455	18.0882
862.788	15.88992
862.9305	19.23858
863.0729	20.18632
863.2154	18.94038
863.3578	19.12984
863.5002	20.16263
863.6426	18.50001
863.7851	15.36415
863.9275	14.91371
864.0698	18.21796
864.2122	12.92765
864.3546	20.95183
864.4969	15.87545
864.6393	18.32677
864.7816	15.00965
864.924	14.73414
865.0662	19.19124
865.2086	19.76051
865.3508	16.81861
865.4931	15.26574
865.6354	15.87137
865.7776	18.15415
865.9199	16.52175
866.0621	15.94433
866.2043	14.33309
866.3466	15.0999
866.4888	12.11378
866.6309	17.39934
866.7731	13.75194
866.9153	16.90591
867.0574	15.80338
867.1996	16.16545
867.3417	15.0581
867.4839	20.51211
867.626	12.9079
867.7681	16.03949
867.9102	19.41513
868.0522	16.63856
868.1943	12.89242
868.3364	13.14196
868.4785	18.65359
868.6205	15.38492
868.7625	15.80227
868.9045	15.23013
869.0465	16.41572
869.1885	16.28051
869.3305	15.47991
869.4725	12.119
869.6144	16.04118
869.7564	14.40075
869.8983	14.79096
870.0403	17.1774
870.1822	9.454492
870.3241	9.361438
870.466	14.91897
870.6079	14.94754
870.7498	15.4085
870.8916	8.194881
871.0335	17.99764
871.1754	20.75069
871.3171	21.69401
871.459	15.78964
871.6008	11.69386
871.7426	15.02773
871.8844	17.31812
872.0262	16.2679
872.1679	17.52355
872.3097	12.28181
872.4514	14.01793
872.5931	17.30906
872.7349	18.37766
872.8766	14.36159
873.0183	13.93692
873.16	14.34391
873.3017	17.67393
873.4434	16.29809
873.585	21.81761
873.7266	15.84044
873.8683	17.20468
874.0099	16.87113
874.1516	19.46473
874.2932	14.13429
874.4348	15.44721
874.5763	13.62416
874.7179	15.20876
874.8594	17.09155
875.001	15.10832
875.1425	16.10018
875.2841	18.14758
875.4256	11.07984
875.5671	14.09088
875.7086	10.6361
875.85	12.70016
875.9915	14.75769
876.133	17.17103
876.2744	14.78288
876.4159	15.91362
876.5573	17.37438
876.6987	17.83207
876.8401	12.17874
876.9815	13.86797
877.1229	16.72508
877.2643	19.00324
877.4056	12.72796
877.547	12.71303
877.6884	14.90259
877.8297	9.722951
877.971	13.72011
878.1123	16.06056
878.2536	12.63241
878.3949	14.97926
878.5362	13.96632
878.6774	14.69925
878.8187	15.14942
878.9599	13.45863
879.1011	11.9361
879.2424	18.98381
879.3836	20.06818
879.5248	13.18625
879.666	17.8913
879.8071	11.77924
879.9483	10.84247
880.0895	16.10874
880.2306	12.92157
880.3718	12.74166
880.5129	14.59097
880.654	14.13634
880.7951	15.99627
880.9362	17.80501
881.0773	13.58218
881.2183	12.82575
881.3594	15.46782
881.5004	18.05331
881.6414	15.57726
881.7825	18.41331
881.9235	17.92548
882.0645	8.671757
882.2054	11.70662
882.3464	16.11791
882.4874	12.71912
882.6284	11.76364
882.7693	12.43079
882.9103	14.99096
883.0512	11.87398
883.1921	12.33884
883.333	13.76421
883.4739	15.20425
883.6147	14.10519
883.7556	15.59675
883.8965	11.58864
884.0374	15.89365
884.1782	15.96832
884.319	12.32809
884.4598	15.29664
884.6006	13.38604
884.7414	20.06741
884.8822	17.03437
885.0229	12.53286
885.1637	13.74153
885.3044	18.55462
885.4452	14.57705
885.5859	15.61375
885.7266	16.69018
885.8673	19.79613
886.008	14.66861
886.1487	16.5341
886.2894	17.13619
886.43	15.64111
886.5707	15.44329
886.7113	14.44141
886.8519	14.50155
886.9926	11.91222
887.1331	16.51676
887.2737	14.0956
887.4143	13.64399
887.5549	10.70659
887.6954	12.62328
887.836	7.892184
887.9765	12.09214
888.1171	15.62529
888.2576	13.41803
888.3981	16.74084
888.5386	15.44063
888.679	16.45103
888.8195	14.61113
888.96	14.52621
889.1004	15.27502
889.2408	14.11015
889.3813	14.6029
889.5217	15.64361
889.6621	14.34732
889.8025	16.31935
889.9429	13.67336
890.0833	10.19841
890.2236	15.76341
890.364	12.39435
890.5043	9.561464
890.6446	10.73772
890.7849	9.61557
890.9252	10.25393
891.0655	9.920927
891.2058	8.298473
891.3461	8.862751
891.4863	12.86117
891.6266	16.25665
891.7668	13.27803
891.907	10.08985
892.0472	11.3676
892.1874	14.44356
892.3276	12.87107
892.4678	12.0368
892.608	12.72458
892.7481	17.99698
892.8883	16.40053
893.0284	12.74407
893.1685	13.96944
893.3087	9.386467
893.4487	12.65211
893.5889	7.803347
893.7289	12.54884
893.869	13.80243
894.009	13.09477
894.1491	10.56695
894.2891	10.51138
894.4291	13.51639
894.5692	11.96204
894.7092	10.78144
894.8491	11.37989
894.9891	12.7368
895.1291	12.10834
895.269	7.475148
895.409	9.48745
895.549	13.09408
895.6888	9.892939
895.8288	6.546944
895.9687	10.38194
896.1086	12.87376
896.2484	15.09424
896.3883	7.673693
896.5281	12.80901
896.668	14.29253
896.8079	13.1542
896.9476	10.0661
897.0875	9.577647
897.2272	9.496567
897.3671	7.571738
897.5068	8.586066
897.6466	5.205955
897.7864	7.118144
897.9261	8.612972
898.0658	9.733156
898.2056	11.52095
898.3453	11.13127
898.4849	10.4987
898.6246	9.45092
898.7643	9.312613
898.904	10.31074
899.0436	12.08465
899.1833	7.264267
899.3229	8.593402
899.4625	8.431756
899.6021	12.40968
899.7417	8.316518
899.8813	12.90882
900.0209	10.72995
900.1605	12.18488
900.3	10.78257
900.4395	8.442808
900.579	12.01981
900.7186	11.19244
900.8581	11.15292
900.9976	14.18375
901.1371	8.296974
901.2766	11.7466
901.416	10.99611
901.5555	16.12708
901.6949	13.74088
901.8344	8.570997
901.9738	10.68836
902.1132	8.670856
902.2526	10.63019
902.3919	9.529552
902.5313	10.75182
902.6707	10.84311
