SPECTRUM DATA FILE
SpectrumCount:	1
PixelCount:	3648
UserName:	ToughBook User
SampleName:	
LightSource:	
Comments:	
DeviceName:	Qwave
DeviceManufacturer:	Broadcom
DeviceSerialNo:	11311

Name:	last spectrum
Date:	2024-05-02T15:06:58.7281426+02:00
ExposureTime:	0.02
TemporalAvg:	1
IntensityUnit:	normalizedCounts
CCDLoadLevel:	0.02011499
Temperature:	28.27905
DiagramColor:	200
ProcessingSteps:	335

Wavelength [nm]	Intensity1
334.421	5.622071
334.5891	3.628338
334.7573	5.199306
334.9254	3.167452
335.0935	2.946414
335.2616	3.977019
335.4297	0.2351468
335.5978	2.38224
335.7659	9.787413
335.934	7.169558
336.1021	2.215374
336.2701	4.867096
336.4382	5.755319
336.6063	4.666331
336.7744	3.717806
336.9424	6.026474
337.1105	7.197667
337.2785	8.661686
337.4466	1.675812
337.6146	5.881253
337.7827	7.180252
337.9507	6.726698
338.1187	8.372748
338.2867	4.450326
338.4548	7.19979
338.6228	5.573518
338.7908	3.571097
338.9588	6.718819
339.1268	4.918318
339.2948	7.164671
339.4628	6.78934
339.6308	2.228023
339.7988	5.380414
339.9667	3.987877
340.1347	7.782663
340.3027	4.395715
340.4707	1.658884
340.6386	1.542564
340.8066	0.8351784
340.9745	3.087326
341.1425	8.00694
341.3104	6.392559
341.4784	3.035128
341.6463	5.080194
341.8142	9.140049
341.9821	4.83118
342.1501	0.9940243
342.318	6.978118
342.4859	7.338129
342.6538	4.815607
342.8217	5.828276
342.9896	3.887725
343.1575	3.886142
343.3254	3.266034
343.4933	2.80151
343.6612	2.98641
343.829	4.426802
343.9969	2.567843
344.1648	2.34269
344.3326	6.028698
344.5005	4.328135
344.6683	3.596911
344.8362	6.918487
345.004	11.16675
345.1719	6.196068
345.3397	5.237112
345.5075	8.417399
345.6754	0.9362906
345.8432	-0.6504015
346.011	3.193252
346.1788	1.024503
346.3466	7.296481
346.5144	4.713861
346.6822	4.488705
346.85	3.332617
347.0178	3.589617
347.1856	6.449166
347.3534	9.350911
347.5211	6.736938
347.6889	4.799486
347.8567	3.209788
348.0244	2.398309
348.1922	1.862805
348.3599	7.226252
348.5277	5.911237
348.6954	4.834343
348.8632	3.91392
349.0309	3.266232
349.1986	1.921655
349.3663	4.895412
349.5341	2.48379
349.7018	3.048831
349.8695	4.025462
350.0372	6.347836
350.2049	1.59667
350.3726	5.052447
350.5403	5.66876
350.7079	4.017526
350.8756	7.37731
351.0433	6.404939
351.211	2.569606
351.3786	7.521736
351.5463	7.552001
351.714	5.435428
351.8816	5.628374
352.0493	6.72611
352.2169	8.627161
352.3846	4.180669
352.5522	1.723779
352.7198	3.620811
352.8875	7.588433
353.0551	4.545772
353.2227	3.270297
353.3903	2.567744
353.5579	2.612043
353.7255	8.263128
353.8931	6.10246
354.0607	7.916428
354.2283	6.409298
354.3958	3.179451
354.5634	4.943986
354.731	2.196978
354.8986	6.227252
355.0661	5.532304
355.2337	4.353936
355.4012	1.293308
355.5688	6.379227
355.7363	2.363893
355.9039	2.911801
356.0714	2.895561
356.239	4.319972
356.4065	4.713399
356.574	7.115974
356.7415	3.361195
356.909	5.5076
357.0765	4.918622
357.244	6.604678
357.4115	7.845928
357.579	6.723945
357.7465	7.36524
357.914	1.858532
358.0815	4.014417
358.249	4.870266
358.4164	4.325427
358.5839	6.288157
358.7513	4.135392
358.9188	5.168778
359.0862	-3.031595
359.2537	5.925822
359.4211	5.365038
359.5886	1.629651
359.756	5.302258
359.9234	6.843081
360.0909	3.213475
360.2583	2.376669
360.4257	3.210912
360.5931	4.623795
360.7605	2.9731
360.9279	3.285586
361.0953	9.994769
361.2627	8.15743
361.4301	3.835194
361.5974	3.111049
361.7648	0.05966902
361.9322	3.227245
362.0995	7.492101
362.2669	4.994341
362.4343	1.57392
362.6016	5.65132
362.769	3.863922
362.9363	1.507909
363.1036	4.550946
363.271	4.461648
363.4383	1.339535
363.6056	4.909309
363.7729	5.702178
363.9402	8.117927
364.1075	10.99756
364.2748	4.737222
364.4421	6.402788
364.6094	6.205296
364.7767	5.362389
364.944	6.460501
365.1113	5.470973
365.2786	10.83305
365.4458	8.327476
365.6131	4.419252
365.7803	8.899567
365.9476	3.391949
366.1148	2.559305
366.2821	4.544588
366.4493	9.550449
366.6166	8.35878
366.7838	4.665878
366.951	6.76264
367.1182	6.138326
367.2855	10.23238
367.4527	9.349111
367.6199	7.025997
367.7871	8.837941
367.9543	5.93407
368.1215	5.994826
368.2886	6.892657
368.4558	5.220464
368.623	8.664034
368.7902	7.133476
368.9573	7.00273
369.1245	6.622705
369.2917	3.8871
369.4588	7.00259
369.6259	6.582555
369.7931	6.47958
369.9602	6.379746
370.1274	6.406652
370.2945	6.126641
370.4616	2.660779
370.6287	6.249626
370.7958	4.962912
370.963	8.73325
371.1301	10.79485
371.2971	3.850507
371.4643	8.05639
371.6313	7.943312
371.7984	7.863862
371.9655	4.272086
372.1326	6.245854
372.2997	8.358057
372.4667	6.157732
372.6338	2.433507
372.8008	6.761081
372.9679	4.513445
373.1349	5.939266
373.3019	10.62533
373.469	3.225646
373.636	6.683651
373.803	5.803421
373.9701	2.939658
374.1371	6.951464
374.3041	5.738392
374.4711	7.076357
374.6381	5.782497
374.8051	5.294185
374.9721	4.556441
375.1391	8.566339
375.3061	8.408598
375.473	7.86312
375.64	4.493789
375.8069	11.76195
375.9739	8.28459
376.1409	6.230177
376.3078	11.05288
376.4748	5.952254
376.6417	8.456885
376.8087	5.980053
376.9756	9.221212
377.1425	4.460949
377.3094	4.187059
377.4763	5.501256
377.6432	5.564716
377.8102	4.47464
377.9771	7.195319
378.144	9.322519
378.3109	8.392362
378.4777	8.703287
378.6446	8.785071
378.8115	6.462374
378.9784	6.262143
379.1452	6.8513
379.3121	8.671414
379.4789	7.002211
379.6458	6.449374
379.8127	8.467937
379.9795	9.812509
380.1463	7.482702
380.3131	7.620067
380.48	7.487135
380.6468	6.932969
380.8136	9.371382
380.9804	6.756985
381.1472	7.021182
381.314	5.934017
381.4808	5.764443
381.6476	8.415211
381.8144	5.922476
381.9812	7.309552
382.148	5.190922
382.3147	7.672513
382.4815	6.512452
382.6483	7.000195
382.815	8.888947
382.9818	8.661894
383.1485	6.899462
383.3153	10.28073
383.482	9.983464
383.6487	11.38001
383.8155	6.403386
383.9822	5.629615
384.1489	13.72127
384.3156	6.826507
384.4823	10.65577
384.649	9.170226
384.8157	3.985396
384.9824	3.571224
385.1491	8.255025
385.3158	7.095236
385.4825	8.918031
385.6491	10.03
385.8158	7.723999
385.9825	5.030818
386.1491	6.126814
386.3157	1.73691
386.4824	5.451777
386.649	6.76827
386.8157	8.228011
386.9823	9.659938
387.1489	6.383505
387.3156	5.790774
387.4821	10.94831
387.6488	11.15174
387.8154	8.203192
387.982	3.803904
388.1486	7.809975
388.3152	8.042463
388.4818	7.895364
388.6483	6.253099
388.8149	9.436569
388.9815	9.043309
389.148	9.671997
389.3146	2.814595
389.4811	8.294718
389.6477	6.140673
389.8142	10.65708
389.9808	12.67119
390.1473	14.69971
390.3138	11.02416
390.4804	7.586992
390.6469	5.930455
390.8134	4.840929
390.9799	10.21283
391.1464	8.653496
391.3129	7.532229
391.4794	10.55914
391.6459	8.824873
391.8124	3.423345
391.9789	6.526742
392.1453	10.44195
392.3118	8.978322
392.4782	9.337041
392.6447	9.867697
392.8112	7.46498
392.9776	5.199328
393.144	6.870119
393.3105	1.911966
393.4769	5.280615
393.6433	7.509416
393.8098	4.680226
393.9762	9.090585
394.1426	5.68653
394.309	14.4358
394.4754	11.78043
394.6418	8.21807
394.8082	6.788692
394.9746	10.78714
395.141	6.464804
395.3073	8.02742
395.4737	10.19394
395.64	12.70015
395.8064	9.748839
395.9728	9.749647
396.1391	7.641047
396.3055	6.295825
396.4718	12.34339
396.6381	7.626415
396.8045	4.232859
396.9708	9.543333
397.1371	7.627747
397.3034	4.630595
397.4697	7.773673
397.636	14.04004
397.8023	8.402046
397.9686	10.69279
398.1349	11.63506
398.3012	10.74967
398.4675	13.33335
398.6337	15.72908
398.8	10.53553
398.9662	10.75485
399.1325	13.48784
399.2988	9.492102
399.465	11.61305
399.6313	14.51768
399.7975	9.898495
399.9637	13.55706
400.1299	8.892592
400.2961	9.364638
400.4624	8.835731
400.6286	16.3502
400.7948	14.33697
400.961	15.40995
401.1272	12.69416
401.2934	10.33634
401.4595	12.85617
401.6257	11.25199
401.7919	13.94335
401.9581	13.95444
402.1242	13.15738
402.2904	14.78637
402.4565	10.4827
402.6227	9.775921
402.7888	11.29367
402.955	13.7233
403.1211	15.34999
403.2872	15.3635
403.4533	12.06636
403.6194	14.46067
403.7856	10.00314
403.9517	14.92525
404.1177	15.87627
404.2838	10.58919
404.4499	12.31672
404.616	15.46114
404.7821	15.87501
404.9482	14.93196
405.1142	16.8057
405.2803	15.77412
405.4464	12.45754
405.6124	16.34949
405.7784	12.30397
405.9445	15.21327
406.1105	10.68709
406.2766	12.72969
406.4426	12.46469
406.6086	10.43173
406.7746	10.38927
406.9406	16.13892
407.1066	10.7518
407.2726	10.43086
407.4386	12.85628
407.6046	11.41292
407.7706	16.31854
407.9366	13.30743
408.1025	19.77396
408.2685	13.89608
408.4344	10.97849
408.6004	12.48959
408.7664	13.81364
408.9323	12.7232
409.0983	12.78624
409.2642	19.78495
409.4301	12.88291
409.596	12.11425
409.762	15.12923
409.9279	15.60452
410.0938	11.20089
410.2597	16.57125
410.4256	15.95288
410.5915	16.21118
410.7574	15.00047
410.9232	13.98847
411.0891	16.51063
411.255	15.43495
411.4209	16.58299
411.5867	24.43237
411.7526	18.85312
411.9184	12.95137
412.0843	17.6548
412.2501	12.47999
412.4159	15.07358
412.5818	13.67159
412.7476	15.16899
412.9134	17.80791
413.0792	12.02878
413.245	13.95043
413.4108	17.81267
413.5766	17.55155
413.7424	21.3672
413.9082	18.29226
414.074	17.12689
414.2397	15.10028
414.4055	15.22627
414.5713	17.76718
414.737	17.98644
414.9028	18.39595
415.0685	23.39182
415.2343	18.35556
415.4	17.12617
415.5658	18.16059
415.7315	19.04492
415.8972	21.77775
416.0629	14.68764
416.2286	19.50154
416.3943	18.85271
416.56	12.19507
416.7257	14.87053
416.8914	16.06101
417.0571	17.50927
417.2228	16.47387
417.3884	17.28996
417.5541	19.62913
417.7198	14.98085
417.8854	17.60445
418.0511	16.54811
418.2167	16.84152
418.3824	21.89889
418.548	22.85523
418.7136	18.85203
418.8792	17.79365
419.0449	16.35519
419.2105	17.75951
419.3761	19.48657
419.5417	19.08199
419.7073	21.71023
419.8729	20.01059
420.0385	19.06653
420.204	15.45004
420.3696	16.19842
420.5352	19.64918
420.7007	15.69574
420.8663	17.05265
421.0319	20.21547
421.1974	24.35272
421.3629	19.6891
421.5285	15.85518
421.694	19.30582
421.8595	19.54607
422.0251	13.7851
422.1906	14.27027
422.3561	18.49923
422.5216	21.16124
422.6871	20.00677
422.8526	19.19419
423.0181	16.90515
423.1835	17.46701
423.349	15.02189
423.5145	24.19219
423.68	19.27719
423.8454	23.14617
424.0109	22.3214
424.1763	19.41534
424.3418	22.51711
424.5072	23.12173
424.6726	17.94534
424.838	18.98207
425.0035	15.35451
425.1689	20.67216
425.3343	23.7907
425.4997	21.02242
425.6651	23.63697
425.8305	20.36309
425.9959	21.72336
426.1613	21.99215
426.3267	18.72022
426.492	22.59515
426.6574	22.90825
426.8228	21.00434
426.9881	20.52018
427.1534	19.37328
427.3188	20.71386
427.4841	22.08772
427.6495	20.05589
427.8148	22.24467
427.9801	21.92595
428.1454	23.66528
428.3107	17.59229
428.476	17.52949
428.6414	16.63293
428.8066	22.41814
428.9719	20.26388
429.1372	21.99896
429.3025	23.88859
429.4678	22.66001
429.633	23.46135
429.7983	24.12644
429.9636	16.9325
430.1288	16.38746
430.294	17.91548
430.4593	18.03946
430.6245	19.5513
430.7897	19.11303
430.955	18.26226
431.1202	18.24079
431.2854	17.49406
431.4506	20.09599
431.6158	25.10905
431.781	26.32994
431.9462	25.9689
432.1114	26.95778
432.2766	20.8522
432.4417	22.51987
432.6069	22.55028
432.772	23.09616
432.9372	26.92996
433.1024	26.61963
433.2675	28.87223
433.4326	27.16093
433.5977	22.91055
433.7629	23.94851
433.928	22.16118
434.0931	14.97342
434.2582	22.37422
434.4233	21.05231
434.5884	22.57842
434.7535	26.31636
434.9186	24.74872
435.0837	28.50079
435.2488	25.86724
435.4138	25.90567
435.5789	24.14853
435.744	25.2911
435.909	26.09265
436.0741	29.5394
436.2391	30.60345
436.4042	29.61389
436.5692	26.76305
436.7342	26.96771
436.8992	29.25226
437.0643	23.44012
437.2293	22.54907
437.3943	22.9098
437.5593	30.10512
437.7243	29.30134
437.8893	27.69585
438.0542	23.15746
438.2192	23.73031
438.3842	20.4759
438.5491	21.65294
438.7141	25.3471
438.8791	28.18256
439.044	29.66314
439.209	27.0679
439.3739	29.84315
439.5388	26.1451
439.7037	22.6346
439.8687	33.36245
440.0336	29.93968
440.1985	32.15183
440.3634	32.27758
440.5283	25.26221
440.6932	22.80318
440.8581	23.29854
441.0229	30.77385
441.1878	28.17452
441.3527	27.02687
441.5175	26.72686
441.6824	29.59764
441.8472	30.772
442.0121	29.88964
442.1769	31.0036
442.3418	31.95837
442.5066	28.28977
442.6714	30.16186
442.8362	26.45968
443.001	25.82811
443.1659	34.78529
443.3307	33.83516
443.4955	28.56709
443.6602	27.9628
443.825	29.8087
443.9898	34.98046
444.1546	27.57626
444.3193	26.85805
444.4841	29.93378
444.6488	27.96621
444.8136	33.20923
444.9783	34.56518
445.1431	31.82836
445.3078	27.73457
445.4725	28.67987
445.6372	24.67916
445.802	21.21924
445.9667	27.94476
446.1314	22.22714
446.2961	30.94835
446.4608	31.43729
446.6255	25.64021
446.7901	27.02229
446.9548	30.90144
447.1195	30.62224
447.2841	27.94742
447.4488	29.70418
447.6134	33.15532
447.7781	30.21687
447.9427	33.51999
448.1074	27.44709
448.272	27.8043
448.4366	30.78688
448.6012	28.95738
448.7658	31.12154
448.9305	31.88974
449.095	34.40466
449.2596	32.61195
449.4242	32.28531
449.5888	28.91331
449.7534	28.45868
449.9179	32.13894
450.0825	33.89504
450.2471	32.77298
450.4116	30.62903
450.5762	32.82894
450.7407	38.35215
450.9052	33.06048
451.0698	33.5022
451.2343	33.51676
451.3988	37.17064
451.5633	33.32912
451.7278	36.6449
451.8923	34.9745
452.0568	35.16531
452.2213	34.31873
452.3858	32.30901
452.5503	35.82008
452.7148	36.99448
452.8792	32.33504
453.0437	31.07272
453.2081	33.46211
453.3726	29.55075
453.537	26.13468
453.7015	28.7533
453.8659	29.50895
454.0303	35.41727
454.1947	34.92855
454.3592	35.93824
454.5236	35.73873
454.688	36.23048
454.8524	36.64105
455.0168	30.09518
455.1811	29.0195
455.3455	34.51575
455.5099	38.4265
455.6743	35.76104
455.8386	35.53344
456.003	36.06906
456.1673	40.33222
456.3317	34.69925
456.496	34.49331
456.6603	37.03997
456.8246	36.3802
456.989	35.93721
457.1533	39.60784
457.3176	37.74548
457.4819	35.35392
457.6462	43.89167
457.8105	38.55822
457.9748	39.24711
458.1391	38.36519
458.3033	34.21036
458.4676	32.56668
458.6319	33.97866
458.7961	39.32098
458.9604	34.00489
459.1246	37.78078
459.2888	33.28978
459.4531	34.80484
459.6173	36.17269
459.7815	36.03036
459.9457	33.38097
460.11	29.656
460.2741	36.17793
460.4384	36.03431
460.6025	40.54903
460.7667	39.27412
460.9309	35.91749
461.0951	36.7306
461.2592	38.0776
461.4234	34.05193
461.5876	35.55818
461.7517	38.52591
461.9159	37.21746
462.08	37.11864
462.2441	37.50394
462.4082	40.41882
462.5724	40.68538
462.7365	37.0298
462.9006	40.08775
463.0647	37.85762
463.2288	32.88889
463.3929	34.21833
463.557	42.15024
463.721	42.17821
463.8851	37.96969
464.0492	37.83181
464.2132	36.5527
464.3773	37.75382
464.5414	38.34551
464.7054	39.40575
464.8694	40.74673
465.0334	37.39669
465.1975	39.34884
465.3615	39.23351
465.5255	34.61113
465.6895	33.70939
465.8535	35.30645
466.0175	35.74289
466.1815	33.04119
466.3455	35.14138
466.5095	36.96661
466.6734	35.16217
466.8374	32.39626
467.0014	36.96576
467.1653	42.01331
467.3293	36.6752
467.4932	36.29802
467.6571	36.49541
467.8211	35.33362
467.985	40.17765
468.1489	34.80352
468.3128	35.02092
468.4767	39.41135
468.6406	33.06378
468.8045	37.52461
468.9684	42.42135
469.1323	44.08286
469.2962	39.90751
469.46	43.63096
469.6239	40.56254
469.7878	45.2618
469.9516	41.94274
470.1154	37.29092
470.2793	36.02414
470.4431	38.98338
470.607	37.56239
470.7708	44.71139
470.9346	42.55639
471.0984	43.41958
471.2622	36.88947
471.426	37.96008
471.5898	38.02155
471.7536	35.86992
471.9174	36.94441
472.0811	40.62783
472.2449	35.74265
472.4087	39.19389
472.5724	42.50949
472.7362	40.57775
472.8999	35.95889
473.0637	42.37032
473.2274	40.78646
473.3911	38.30476
473.5548	34.19179
473.7185	37.86992
473.8822	38.86386
474.0459	39.31958
474.2096	41.46544
474.3733	45.08782
474.537	37.4201
474.7007	43.03382
474.8643	38.40433
475.028	41.10729
475.1917	40.0498
475.3553	37.25201
475.519	31.40761
475.6826	35.74481
475.8463	38.68478
476.0099	38.1067
476.1735	38.37949
476.3371	38.53728
476.5007	38.35162
476.6643	38.30845
476.8279	38.18911
476.9915	36.2479
477.1551	35.81716
477.3187	38.62881
477.4823	42.26535
477.6458	41.94088
477.8094	43.48914
477.9729	42.85216
478.1365	40.07844
478.3	37.4125
478.4636	37.81863
478.6271	38.92507
478.7906	35.10834
478.9541	39.64251
479.1176	39.14501
479.2812	45.25856
479.4447	44.30234
479.6082	44.83552
479.7716	38.1936
479.9351	38.20139
480.0986	45.29543
480.2621	38.6343
480.4255	35.17686
480.589	36.76291
480.7524	40.75926
480.9159	37.78933
481.0793	39.25211
481.2428	38.90445
481.4062	39.5288
481.5696	39.42709
481.733	41.89709
481.8964	39.73832
482.0598	39.33051
482.2232	39.70282
482.3866	36.24551
482.55	40.90105
482.7134	38.84243
482.8768	40.7452
483.0401	40.99081
483.2035	39.37937
483.3668	37.48999
483.5302	43.01325
483.6935	40.26514
483.8568	37.11031
484.0202	38.88443
484.1835	36.99316
484.3468	40.59625
484.5101	42.28633
484.6734	38.33411
484.8367	41.35992
485	38.67501
485.1633	36.60748
485.3266	42.1238
485.4899	39.09821
485.6531	35.23896
485.8164	37.0971
485.9796	32.91765
486.1429	32.50158
486.3061	35.82389
486.4694	36.38334
486.6326	39.2366
486.7958	39.24025
486.959	38.58389
487.1223	41.90025
487.2855	41.26162
487.4486	38.90464
487.6118	41.47156
487.775	41.83491
487.9382	44.34406
488.1014	43.91278
488.2646	38.66319
488.4277	38.3584
488.5909	40.2585
488.754	40.26591
488.9171	35.14202
489.0803	39.09802
489.2434	38.63847
489.4066	38.19339
489.5697	43.47198
489.7328	43.63528
489.8959	45.41954
490.059	44.02017
490.2221	37.18925
490.3852	40.72145
490.5482	40.93248
490.7113	40.57755
490.8744	44.20573
491.0374	43.19744
491.2005	42.7377
491.3636	43.48495
491.5266	41.60747
491.6896	38.09178
491.8527	40.81676
492.0157	42.41685
492.1787	37.15645
492.3417	36.13264
492.5047	38.62256
492.6677	43.95541
492.8307	47.18596
492.9937	50.96568
493.1567	41.16774
493.3196	42.52373
493.4826	43.09328
493.6456	36.38382
493.8085	35.85123
493.9715	41.67464
494.1344	44.9106
494.2974	40.6021
494.4603	41.27606
494.6232	44.94048
494.7861	49.97989
494.949	46.11299
495.1119	43.33295
495.2748	41.11354
495.4377	41.49865
495.6006	39.67643
495.7635	42.04753
495.9264	41.69065
496.0892	46.04735
496.2521	42.56615
496.4149	50.86814
496.5778	44.09913
496.7407	43.14973
496.9035	45.47506
497.0663	46.7763
497.2291	45.55928
497.3919	43.13514
497.5547	46.2673
497.7176	42.45738
497.8804	46.1897
498.0432	43.17546
498.2059	39.38591
498.3687	43.62297
498.5315	40.46975
498.6942	41.64763
498.857	41.61541
499.0198	46.41265
499.1825	47.85592
499.3452	42.42484
499.508	43.49702
499.6707	43.32905
499.8334	45.96086
499.9962	46.67167
500.1589	41.8544
500.3216	36.79951
500.4843	41.46079
500.6469	41.66861
500.8096	43.96248
500.9723	44.1886
501.135	41.96087
501.2976	41.13941
501.4603	39.52778
501.623	41.98083
501.7856	42.20268
501.9482	41.09094
502.1109	43.76431
502.2735	48.51438
502.4361	43.20095
502.5987	44.80766
502.7614	45.23129
502.924	44.83759
503.0865	46.35574
503.2491	44.96959
503.4117	44.23902
503.5743	43.71415
503.7368	46.84546
503.8994	43.80078
504.062	44.35973
504.2245	40.45486
504.3871	45.62437
504.5496	41.99474
504.7121	43.4952
504.8746	41.71819
505.0372	46.88493
505.1997	42.68479
505.3622	42.37785
505.5247	49.42186
505.6872	48.14078
505.8497	42.98808
506.0121	46.75204
506.1746	46.53711
506.3371	53.10812
506.4995	46.83654
506.662	42.72922
506.8244	45.18826
506.9869	46.24417
507.1493	44.80913
507.3117	46.39952
507.4742	46.15683
507.6366	47.21003
507.799	48.08661
507.9614	49.27282
508.1238	48.87641
508.2862	47.78129
508.4485	46.99074
508.6109	45.54108
508.7733	46.91693
508.9357	43.16389
509.098	46.60589
509.2604	48.708
509.4227	49.26771
509.5851	52.53848
509.7474	48.60735
509.9097	49.93029
510.072	55.94002
510.2343	54.38989
510.3966	53.09524
510.5589	50.03499
510.7212	49.37571
510.8835	50.83728
511.0458	49.43751
511.2081	52.80386
511.3703	50.15506
511.5326	52.35959
511.6949	48.70658
511.8571	50.02038
512.0193	53.39496
512.1816	52.28352
512.3438	52.34396
512.506	50.90348
512.6682	48.52087
512.8304	50.15493
512.9926	49.88327
513.1548	45.49036
513.317	51.73838
513.4792	52.79778
513.6414	55.93798
513.8035	56.48387
513.9657	52.13935
514.1279	43.53219
514.29	48.64087
514.4521	52.73052
514.6143	50.94864
514.7764	53.10111
514.9385	53.76348
515.1006	47.63934
515.2628	46.02677
515.4249	48.45132
515.587	55.38315
515.7491	55.26013
515.9111	57.8186
516.0732	51.93938
516.2353	55.08131
516.3973	56.12963
516.5594	55.07327
516.7214	49.71851
516.8835	41.78317
517.0455	44.27083
517.2076	50.62597
517.3696	47.27381
517.5316	48.90191
517.6937	56.50116
517.8557	54.12008
518.0176	54.16592
518.1796	48.84976
518.3416	41.86867
518.5036	45.34169
518.6656	51.80456
518.8275	55.74485
518.9895	51.98144
519.1514	54.94727
519.3134	55.94136
519.4753	56.70189
519.6373	58.43665
519.7992	56.95993
519.9611	64.74754
520.123	60.09422
520.2849	56.92919
520.4468	57.42888
520.6087	54.43864
520.7706	52.63577
520.9325	56.01919
521.0944	53.10815
521.2562	59.16178
521.4181	57.77354
521.58	54.90284
521.7418	61.01145
521.9036	63.60134
522.0655	60.57475
522.2273	63.21167
522.3891	62.88736
522.551	58.12898
522.7128	54.84622
522.8746	60.16875
523.0363	63.3183
523.1981	60.80682
523.3599	56.1129
523.5217	55.64635
523.6835	64.55295
523.8452	64.13706
524.007	66.11372
524.1687	67.44645
524.3304	65.04098
524.4922	64.00193
524.6539	71.11573
524.8157	66.48405
524.9774	65.9614
525.1391	71.96689
525.3008	67.50179
525.4625	68.33356
525.6241	65.67294
525.7858	68.85766
525.9475	70.49751
526.1092	66.48377
526.2709	66.59205
526.4325	63.36079
526.5942	56.79848
526.7558	57.7886
526.9174	68.0527
527.079	64.18208
527.2407	68.24817
527.4023	68.76674
527.5639	66.83049
527.7255	67.32668
527.8871	72.13034
528.0487	70.60399
528.2103	71.33801
528.3718	68.62611
528.5334	73.66496
528.695	70.31596
528.8565	74.42312
529.0181	74.1464
529.1796	69.35125
529.3412	75.39201
529.5027	75.18492
529.6642	71.91229
529.8257	76.76688
529.9872	72.48676
530.1487	68.83422
530.3102	76.64429
530.4717	81.64212
530.6332	78.18829
530.7947	74.49643
530.9562	72.38387
531.1176	66.70948
531.2791	70.35638
531.4405	75.91711
531.6019	76.43999
531.7634	68.86886
531.9248	75.00265
532.0862	72.3292
532.2477	74.32674
532.4091	67.86562
532.5704	69.51529
532.7319	70.1959
532.8932	64.9037
533.0546	70.23366
533.216	74.39133
533.3774	78.92796
533.5388	76.75817
533.7001	80.95142
533.8615	75.87794
534.0228	75.96878
534.1841	75.63597
534.3455	79.08729
534.5068	75.82325
534.6681	80.65244
534.8293	77.30217
534.9907	81.5389
535.152	82.97569
535.3132	81.99345
535.4745	81.39574
535.6358	78.36333
535.7971	78.02847
535.9583	78.17892
536.1196	79.51125
536.2808	74.23177
536.4421	75.50428
536.6033	74.14714
536.7645	72.61855
536.9258	72.71136
537.087	72.48956
537.2482	69.01973
537.4094	74.40172
537.5706	77.66699
537.7318	80.3707
537.8929	83.10354
538.0541	74.84646
538.2153	70.67399
538.3764	79.92774
538.5376	78.42608
538.6987	80.7113
538.8599	70.79394
539.021	75.69656
539.1821	73.10901
539.3432	77.69352
539.5043	77.78072
539.6655	73.94565
539.8265	73.73997
539.9876	74.25895
540.1487	73.5691
540.3098	79.68572
540.4708	72.73135
540.6319	69.60416
540.793	74.2489
540.954	73.12836
541.1151	71.63856
541.2761	71.43387
541.4371	71.61934
541.5981	74.4764
541.7592	74.76607
541.9202	72.92259
542.0812	78.25574
542.2422	74.50986
542.4031	77.55058
542.5641	76.51107
542.7251	79.24724
542.886	74.81389
543.0471	75.37045
543.208	77.85704
543.369	74.58779
543.5298	72.31561
543.6908	73.59148
543.8517	77.21227
544.0126	74.68366
544.1736	78.50205
544.3345	79.27564
544.4954	75.05267
544.6563	78.0251
544.8171	72.28635
544.978	78.73436
545.1389	79.02267
545.2997	79.87565
545.4606	80.55856
545.6215	79.50227
545.7823	79.78872
545.9432	80.72659
546.104	75.21477
546.2648	78.33023
546.4256	74.69356
546.5864	77.24323
546.7473	74.49878
546.908	77.16742
547.0688	77.76207
547.2296	73.84179
547.3904	71.88601
547.5511	73.13742
547.7119	77.87859
547.8727	73.88303
548.0334	74.65593
548.1942	73.98428
548.3549	75.76364
548.5156	72.98903
548.6763	75.29086
548.837	75.98948
548.9977	78.7173
549.1584	72.1043
549.3192	78.85812
549.4798	78.25393
549.6405	76.13214
549.8011	75.81968
549.9619	82.71178
550.1225	74.02454
550.2831	72.4189
550.4438	79.38926
550.6044	85.43853
550.765	84.88991
550.9257	82.54965
551.0863	79.06274
551.2469	74.66238
551.4075	79.51999
551.5681	76.72331
551.7287	71.00587
551.8893	74.35363
552.0498	77.86755
552.2104	77.53714
552.371	77.57236
552.5315	79.90337
552.6921	78.44923
552.8526	80.46494
553.0131	77.8848
553.1736	81.52818
553.3342	80.70842
553.4947	76.84413
553.6552	78.03169
553.8157	79.24918
553.9762	75.91853
554.1367	75.82287
554.2971	72.33216
554.4576	79.71016
554.618	78.46864
554.7785	78.21882
554.939	76.48537
555.0994	81.49139
555.2598	75.02116
555.4203	79.6545
555.5807	74.46101
555.7411	69.41373
555.9015	78.53371
556.0619	79.95671
556.2223	74.96359
556.3827	70.62791
556.5431	73.3024
556.7034	72.15411
556.8638	69.77598
557.0242	72.37596
557.1845	73.94657
557.3448	71.81267
557.5052	77.8543
557.6655	76.44612
557.8259	72.42496
557.9861	72.81127
558.1465	74.58217
558.3068	74.03282
558.467	74.17859
558.6274	66.64423
558.7877	67.30649
558.9479	68.29931
559.1082	69.71146
559.2684	71.61375
559.4287	68.28938
559.5889	75.10725
559.7491	75.90952
559.9094	71.40915
560.0696	70.09994
560.2299	67.92278
560.3901	65.21264
560.5502	67.96579
560.7104	72.13864
560.8707	69.55917
561.0308	73.66258
561.191	71.70382
561.3511	69.68596
561.5114	62.88028
561.6714	63.7577
561.8316	61.80788
561.9918	66.4952
562.1519	67.92985
562.312	69.73976
562.4722	72.23238
562.6323	70.72726
562.7924	66.80453
562.9525	71.08983
563.1125	72.83242
563.2726	69.94772
563.4327	70.64776
563.5928	67.71877
563.7528	73.86255
563.9129	74.02931
564.0729	70.71194
564.233	69.08176
564.393	68.10596
564.553	67.67149
564.7131	71.24174
564.873	67.48139
565.0331	68.43767
565.1931	74.94269
565.353	69.62616
565.5131	68.54803
565.673	67.07323
565.833	66.83091
565.9929	63.57283
566.1529	65.38097
566.3129	66.3456
566.4728	67.10117
566.6328	67.02144
566.7927	69.44611
566.9526	61.18873
567.1125	60.48943
567.2724	66.25026
567.4323	68.46204
567.5922	67.79137
567.7521	66.10212
567.9119	60.79898
568.0718	63.48715
568.2317	58.06837
568.3915	61.32031
568.5514	59.47599
568.7112	59.41291
568.871	64.74363
569.0309	64.80389
569.1907	62.33025
569.3505	60.39843
569.5103	64.4583
569.6701	69.68613
569.8299	58.82378
569.9897	55.70275
570.1495	57.49584
570.3092	56.31089
570.469	61.9771
570.6287	60.53099
570.7885	62.15281
570.9482	58.18888
571.108	61.34852
571.2677	63.44458
571.4274	58.1848
571.5871	59.23954
571.7468	63.08101
571.9066	59.82013
572.0662	58.8676
572.2259	64.07101
572.3856	58.89027
572.5452	61.88517
572.7049	60.37351
572.8646	63.67229
573.0242	67.1264
573.1838	63.63675
573.3435	66.53235
573.5031	61.17456
573.6627	64.73329
573.8223	62.96513
573.9819	60.03407
574.1415	60.35238
574.3011	60.89026
574.4607	62.14217
574.6203	57.22593
574.7798	60.32753
574.9394	60.06705
575.099	60.64641
575.2585	61.34733
575.418	54.7273
575.5776	58.54544
575.7371	53.94359
575.8966	59.97248
576.0562	51.34077
576.2156	53.46647
576.3751	58.90611
576.5346	56.79892
576.6941	61.53226
576.8536	56.58899
577.0131	57.61255
577.1725	55.83421
577.332	56.00945
577.4914	55.71956
577.6508	58.27497
577.8103	56.71093
577.9697	57.33853
578.1291	54.37221
578.2885	50.91666
578.4479	50.41533
578.6073	53.27147
578.7667	53.92051
578.9261	54.39156
579.0854	54.4192
579.2448	58.74949
579.4042	61.26601
579.5635	56.06258
579.7229	54.75734
579.8822	57.4001
580.0416	50.81877
580.2009	58.00412
580.3602	47.53587
580.5195	53.66215
580.6788	57.38358
580.8381	57.3666
580.9974	57.71224
581.1566	51.22576
581.3159	52.79401
581.4752	53.9719
581.6345	54.74145
581.7937	53.50067
581.9529	57.45637
582.1122	51.2089
582.2714	51.19103
582.4306	53.3811
582.5898	46.80399
582.749	47.99051
582.9082	54.94198
583.0674	56.9374
583.2266	54.87017
583.3857	51.41825
583.5449	47.51244
583.7041	54.87388
583.8633	57.70828
584.0224	53.94852
584.1815	49.21627
584.3407	47.46552
584.4998	50.14313
584.6589	46.83429
584.818	44.34045
584.9771	49.63353
585.1362	51.158
585.2953	53.88029
585.4544	52.62096
585.6135	52.35691
585.7725	47.94045
585.9316	49.91772
586.0906	52.84033
586.2497	56.14393
586.4087	52.29292
586.5677	45.88897
586.7267	54.89663
586.8858	54.99749
587.0448	54.98357
587.2038	55.39996
587.3628	53.44379
587.5218	54.70574
587.6807	54.87077
587.8397	51.92642
587.9987	45.82415
588.1577	52.91702
588.3166	45.33777
588.4755	43.55283
588.6345	42.8396
588.7934	47.8517
588.9523	46.74952
589.1112	47.73062
589.2701	44.21838
589.429	43.20131
589.5879	43.7273
589.7468	45.94148
589.9056	47.78033
590.0645	49.46203
590.2234	53.32881
590.3822	48.18106
590.5411	48.20974
590.6999	48.22274
590.8588	47.35101
591.0176	51.40897
591.1764	52.34832
591.3352	46.70255
591.494	50.26363
591.6528	46.74448
591.8116	48.51332
591.9703	45.22178
592.1291	49.75964
592.2878	47.75988
592.4467	46.37237
592.6053	48.91647
592.7641	51.33149
592.9229	50.68306
593.0816	43.8368
593.2403	43.90339
593.399	48.27996
593.5577	48.21022
593.7164	49.05461
593.8751	49.31846
594.0338	46.26175
594.1924	46.72309
594.3511	44.55503
594.5098	43.61179
594.6684	50.42789
594.8271	52.30571
594.9857	51.20607
595.1443	46.41366
595.303	44.91
595.4615	45.12729
595.6202	46.21888
595.7787	50.70476
595.9374	48.66809
596.0959	49.70241
596.2545	40.51648
596.4131	44.5008
596.5717	46.80863
596.7302	50.3762
596.8887	49.95345
597.0473	47.86167
597.2058	45.30427
597.3644	44.68488
597.5229	45.43164
597.6814	46.5214
597.8399	47.29232
597.9984	48.20314
598.1569	49.25659
598.3154	43.99279
598.4738	46.95445
598.6323	47.10667
598.7908	42.2362
598.9492	41.40903
599.1076	48.2162
599.2661	47.34456
599.4245	49.15975
599.5829	49.75713
599.7413	48.39629
599.8997	48.36057
600.0581	50.06067
600.2165	45.54421
600.3749	46.2187
600.5333	44.50111
600.6917	42.64356
600.85	46.40493
601.0084	45.68142
601.1667	44.13205
601.325	42.74687
601.4833	42.44513
601.6417	46.60849
601.8	44.50053
601.9583	46.43813
602.1166	46.3125
602.2749	47.90608
602.4332	50.57884
602.5914	50.62924
602.7498	43.88784
602.908	43.43492
603.0662	47.55272
603.2245	50.31529
603.3828	49.67995
603.541	46.62376
603.6992	50.0698
603.8574	49.347
604.0156	42.88869
604.1738	43.12598
604.332	45.11337
604.4902	43.62001
604.6484	46.06192
604.8065	45.94114
604.9647	42.37289
605.1229	40.29599
605.281	41.79359
605.4391	43.96374
605.5973	42.25871
605.7554	42.95131
605.9135	44.29368
606.0717	44.14871
606.2297	37.56741
606.3878	40.25333
606.5459	45.11923
606.704	41.96287
606.8621	43.40379
607.0201	41.60313
607.1782	41.20692
607.3362	37.48684
607.4943	46.50165
607.6523	44.66734
607.8104	45.20708
607.9684	42.8529
608.1264	40.91555
608.2844	39.66599
608.4424	47.2342
608.6003	46.48603
608.7584	41.94064
608.9163	44.48958
609.0743	40.85518
609.2322	49.67705
609.3902	51.35419
609.5482	43.83695
609.7061	44.41333
609.864	49.21859
610.0219	45.61023
610.1798	41.65025
610.3377	38.54278
610.4956	38.1595
610.6535	42.63534
610.8114	44.01445
610.9693	40.80046
611.1271	40.69109
611.285	47.55075
611.4429	47.7522
611.6007	42.48965
611.7585	43.32103
611.9164	44.68438
612.0742	41.4839
612.232	43.466
612.3898	42.6306
612.5476	45.36251
612.7054	40.59587
612.8632	40.86479
613.0209	40.04659
613.1787	41.77549
613.3365	40.74872
613.4942	39.65736
613.652	38.63847
613.8097	37.62193
613.9674	36.38634
614.1252	37.72667
614.2829	40.71688
614.4406	41.37754
614.5983	38.83686
614.756	38.92318
614.9136	38.71634
615.0714	39.93213
615.229	39.1213
615.3867	43.28728
615.5443	40.0769
615.702	38.53741
615.8596	39.23973
616.0172	39.15472
616.1748	39.94616
616.3325	40.21408
616.4901	37.82896
616.6476	36.88011
616.8052	36.77151
616.9628	36.71148
617.1204	42.7537
617.278	36.79531
617.4355	38.84445
617.5931	43.80701
617.7506	40.92703
617.9081	43.68327
618.0657	40.0103
618.2232	38.82492
618.3807	42.35148
618.5382	38.52937
618.6957	39.533
618.8532	43.59395
619.0107	40.42678
619.1682	39.13416
619.3256	34.97461
619.4831	38.19343
619.6406	39.19497
619.798	41.4138
619.9554	45.69009
620.1129	44.90332
620.2703	40.83191
620.4277	39.54585
620.5851	40.07714
620.7425	35.769
620.8998	39.49121
621.0573	41.36479
621.2146	39.71081
621.372	34.16199
621.5294	36.26385
621.6867	37.83549
621.8441	36.85063
622.0013	37.14405
622.1587	40.28465
622.316	42.67825
622.4733	34.45098
622.6306	32.82846
622.7879	31.3264
622.9452	43.27402
623.1025	41.17738
623.2598	37.8192
623.4171	38.77202
623.5743	40.01908
623.7316	39.02127
623.8888	31.68582
624.046	40.8504
624.2032	37.67644
624.3605	37.12283
624.5176	33.95271
624.6749	37.10584
624.8321	33.75032
624.9893	39.02656
625.1464	42.71097
625.3036	40.38371
625.4608	34.65717
625.6179	41.1397
625.7751	37.14423
625.9322	38.8674
626.0894	36.11403
626.2465	37.79
626.4036	39.8262
626.5607	40.30379
626.7178	37.49657
626.8749	36.86649
627.032	38.40159
627.189	38.16435
627.3461	37.26331
627.5032	35.80438
627.6602	33.9423
627.8173	32.95451
627.9743	36.74806
628.1313	36.84612
628.2884	34.78902
628.4454	36.96699
628.6024	38.04062
628.7594	38.28407
628.9164	42.19724
629.0734	39.81607
629.2303	38.941
629.3873	40.653
629.5443	40.59339
629.7012	36.2155
629.8582	34.71421
630.0151	32.45784
630.172	34.03832
630.3289	36.41485
630.4858	36.72869
630.6428	33.70234
630.7996	37.1311
630.9565	38.32476
631.1134	33.14464
631.2703	42.76607
631.4272	35.63885
631.584	36.96151
631.7408	39.95914
631.8977	38.67188
632.0546	35.9462
632.2114	37.21429
632.3682	39.5097
632.525	37.32736
632.6818	37.43718
632.8386	40.6935
632.9954	37.10844
633.1522	36.42198
633.3089	36.04441
633.4657	43.82658
633.6224	40.67017
633.7792	38.31844
633.9359	36.25936
634.0927	34.4004
634.2494	37.35402
634.4061	37.76326
634.5628	39.80762
634.7195	38.29977
634.8762	40.96811
635.0329	35.26159
635.1895	36.89527
635.3462	36.0089
635.5029	35.01398
635.6595	37.41228
635.8162	31.16223
635.9728	31.88647
636.1295	36.24414
636.2861	33.76135
636.4427	31.84512
636.5992	37.08279
636.7559	36.80499
636.9124	36.91587
637.069	47.09243
637.2256	41.71226
637.3821	35.59311
637.5387	37.5667
637.6953	33.40454
637.8518	33.39228
638.0084	32.6448
638.1649	33.10348
638.3214	29.66718
638.4779	34.63352
638.6344	34.08414
638.7909	35.22439
638.9474	35.23223
639.1038	38.94822
639.2603	36.40505
639.4167	38.56886
639.5732	32.87363
639.7297	33.3732
639.8861	32.23316
640.0425	33.11557
640.199	34.49256
640.3553	30.22354
640.5118	34.92103
640.6682	35.14455
640.8245	34.64365
640.981	37.54514
641.1373	35.36178
641.2936	37.95761
641.45	33.60224
641.6064	38.46137
641.7627	35.08525
641.9191	36.13051
642.0754	31.83828
642.2317	34.16225
642.388	37.54546
642.5443	38.66014
642.7006	36.73479
642.8569	33.13741
643.0131	34.64876
643.1694	33.99647
643.3257	35.11817
643.4819	39.87109
643.6382	38.75743
643.7944	36.23581
643.9506	35.48893
644.1069	35.14627
644.2631	34.93467
644.4193	32.3444
644.5754	34.45324
644.7316	35.10704
644.8878	36.3639
645.044	31.35037
645.2002	35.26888
645.3563	31.22362
645.5125	31.47132
645.6686	30.19735
645.8248	34.01734
645.9809	34.36304
646.137	30.87909
646.2931	31.73096
646.4492	31.3417
646.6053	31.62139
646.7614	36.7363
646.9174	36.67284
647.0735	35.16493
647.2296	29.44085
647.3856	33.76475
647.5417	30.87962
647.6977	31.14913
647.8537	30.64334
648.0098	33.79502
648.1658	30.41188
648.3218	30.34536
648.4777	29.26731
648.6337	30.49209
648.7897	30.48795
648.9457	26.34294
649.1016	31.47048
649.2576	33.01423
649.4135	26.1728
649.5695	37.29379
649.7254	33.2902
649.8813	26.43281
650.0372	36.84042
650.1932	29.37095
650.3491	30.78936
650.5049	33.37206
650.6608	32.18618
650.8167	30.00215
650.9725	34.35257
651.1284	36.51204
651.2842	32.55214
651.4401	31.8599
651.5959	33.66693
651.7518	34.86416
651.9076	30.1543
652.0634	27.64887
652.2192	31.03875
652.3749	33.64654
652.5308	30.84521
652.6865	27.28861
652.8423	27.85524
652.998	25.79798
653.1538	27.97905
653.3096	29.21857
653.4653	23.06893
653.621	29.32346
653.7767	30.70656
653.9324	30.91793
654.0881	31.1603
654.2438	31.17571
654.3995	30.4256
654.5552	31.05833
654.7109	27.01192
654.8665	27.70221
655.0222	30.71933
655.1778	29.99329
655.3334	24.14875
655.4891	26.93835
655.6447	27.67156
655.8003	31.01008
655.9559	27.81189
656.1115	30.38655
656.2671	26.21993
656.4227	28.31589
656.5782	31.90296
656.7338	31.2192
656.8893	31.28196
657.0449	28.35492
657.2004	30.58261
657.356	29.9541
657.5115	27.71085
657.667	28.83353
657.8225	29.88731
657.978	29.58412
658.1335	29.48049
658.289	27.23465
658.4445	32.61591
658.5999	34.35144
658.7554	30.54382
658.9108	28.50028
659.0663	31.29292
659.2217	33.97996
659.3771	31.49575
659.5325	32.36634
659.6879	30.90516
659.8433	30.25879
659.9987	27.75175
660.1541	28.85754
660.3095	29.45518
660.4648	33.25995
660.6202	31.57191
660.7756	29.91035
660.9309	25.17384
661.0862	28.63515
661.2416	28.84164
661.3969	28.84755
661.5522	28.70296
661.7075	27.09187
661.8628	29.16588
662.0181	28.72257
662.1733	27.42825
662.3286	29.30967
662.4839	29.73256
662.6391	32.70255
662.7944	29.47927
662.9496	27.49232
663.1048	28.95199
663.26	27.61268
663.4152	33.34333
663.5704	33.64985
663.7256	29.02296
663.8808	29.45764
664.036	30.95576
664.1912	29.77931
664.3463	32.26635
664.5015	28.5284
664.6566	31.26559
664.8118	27.27425
664.9669	30.99538
665.122	31.71358
665.2771	27.12804
665.4322	25.54081
665.5873	26.89983
665.7424	32.72131
665.8975	27.61798
666.0526	29.26597
666.2076	28.23398
666.3627	27.12275
666.5177	26.83456
666.6727	26.75129
666.8278	28.29061
666.9828	31.75578
667.1378	27.50036
667.2928	27.87842
667.4478	26.70107
667.6028	25.66237
667.7578	26.16878
667.9127	30.52513
668.0677	28.01207
668.2226	28.1629
668.3776	26.0237
668.5325	27.61903
668.6874	31.33572
668.8423	30.09334
668.9973	25.29368
669.1522	24.53912
669.3071	25.24259
669.4619	27.79708
669.6168	26.34208
669.7717	24.88884
669.9265	26.64173
670.0814	26.56658
670.2362	27.88039
670.3911	27.49427
670.5459	27.12284
670.7007	28.46375
670.8555	26.98612
671.0103	29.37382
671.1651	30.98171
671.3199	29.8296
671.4747	29.64551
671.6295	28.34693
671.7842	23.44946
671.939	25.15992
672.0937	28.60178
672.2484	25.51633
672.4031	28.92868
672.5579	28.71989
672.7126	26.3446
672.8673	25.31184
673.022	24.42775
673.1767	24.64594
673.3314	24.67618
673.486	24.46303
673.6407	26.54301
673.7953	29.68177
673.95	22.53302
674.1046	25.09018
674.2592	25.52465
674.4138	25.20123
674.5684	26.23879
674.723	29.90821
674.8776	24.87114
675.0322	21.84707
675.1868	26.84361
675.3414	24.78742
675.4959	29.60325
675.6505	25.82854
675.805	19.35898
675.9595	23.41702
676.1141	29.41882
676.2686	28.6058
676.4231	27.17938
676.5776	27.4554
676.7321	29.48403
676.8866	22.21546
677.041	24.75782
677.1955	26.91234
677.35	24.47267
677.5044	21.76763
677.6589	22.06629
677.8133	27.59236
677.9677	25.72065
678.1221	23.96384
678.2766	25.02307
678.4309	29.93813
678.5853	30.06562
678.7397	25.14358
678.8941	29.22227
679.0485	26.08002
679.2028	26.18251
679.3571	24.51604
679.5115	29.97881
679.6658	27.40391
679.8201	29.43404
679.9744	22.91076
680.1288	22.53845
680.2831	25.49282
680.4373	26.59936
680.5916	23.75316
680.7459	24.98674
680.9001	23.96079
681.0544	27.62471
681.2087	27.68941
681.3629	29.80216
681.5171	21.97118
681.6713	25.37231
681.8256	29.22321
681.9797	29.85142
682.134	27.04015
682.2881	23.40023
682.4423	20.15657
682.5965	26.01818
682.7507	22.97879
682.9048	23.49172
683.059	27.7556
683.2131	25.25607
683.3672	27.98355
683.5213	27.00982
683.6754	24.67971
683.8295	25.88784
683.9836	27.65531
684.1377	26.6406
684.2918	28.0996
684.4459	27.64201
684.5999	27.08518
684.754	23.57128
684.908	24.41234
685.062	24.55429
685.2161	28.09351
685.3701	27.84295
685.5241	28.53154
685.6781	21.92219
685.8321	26.98502
685.9861	26.26483
686.14	24.77739
686.294	31.7422
686.4479	25.40973
686.6019	24.60435
686.7559	26.5541
686.9098	24.56902
687.0637	22.27152
687.2176	19.94134
687.3715	18.76861
687.5254	22.76844
687.6793	23.58669
687.8332	24.21584
687.9871	21.74035
688.1409	23.33491
688.2947	25.15231
688.4486	26.25318
688.6024	25.42421
688.7563	26.04392
688.9101	28.18776
689.0639	27.55567
689.2177	28.70283
689.3715	23.49951
689.5253	20.25391
689.6791	20.63471
689.8328	23.28711
689.9866	26.45526
690.1403	25.62125
690.2941	28.57387
690.4478	26.7028
690.6015	24.87532
690.7552	25.89544
690.9089	27.71803
691.0626	26.69818
691.2164	24.84145
691.37	23.83586
691.5237	24.2205
691.6774	26.04012
691.831	24.12283
691.9847	17.62582
692.1383	27.74984
692.2919	25.55428
692.4456	23.65154
692.5992	22.14439
692.7527	23.9208
692.9064	29.84799
693.0599	24.8974
693.2136	24.94478
693.3671	24.80872
693.5207	25.65901
693.6742	22.80692
693.8278	20.06961
693.9813	25.14563
694.1348	22.39742
694.2883	28.3233
694.4418	26.64754
694.5953	28.2132
694.7488	27.01299
694.9023	23.9355
695.0558	27.71586
695.2093	30.07489
695.3627	27.21023
695.5162	25.47765
695.6696	26.99722
695.8231	26.19188
695.9764	24.16049
696.1299	31.05892
696.2833	32.42636
696.4367	33.19504
696.5901	27.97239
696.7435	28.4127
696.8968	28.07392
697.0502	31.54493
697.2036	30.47888
697.3569	26.59048
697.5102	28.6075
697.6635	30.20726
697.8168	28.91765
697.9702	27.99632
698.1235	27.84323
698.2768	32.32301
698.4301	28.05975
698.5833	25.15733
698.7366	31.89795
698.8898	29.69929
699.0431	27.67978
699.1964	25.33865
699.3495	25.33685
699.5028	31.97096
699.656	32.93683
699.8092	26.72227
699.9624	30.88461
700.1156	33.17117
700.2688	27.75205
700.4219	27.50648
700.5751	29.23936
700.7283	29.48887
700.8814	32.07451
701.0345	31.29943
701.1877	33.57917
701.3408	32.78241
701.4939	34.19313
701.647	30.51554
701.8001	26.29482
701.9532	27.52645
702.1063	32.08014
702.2593	29.60393
702.4124	28.57152
702.5654	32.14169
702.7184	31.0014
702.8715	30.60292
703.0245	36.30593
703.1776	36.68119
703.3305	35.68324
703.4835	30.67234
703.6365	36.08697
703.7895	37.72864
703.9424	34.44173
704.0954	28.349
704.2484	34.60857
704.4013	34.37069
704.5543	33.92564
704.7072	36.53758
704.8601	31.33659
705.013	30.98398
705.1659	33.85712
705.3188	35.59062
705.4717	37.79173
705.6246	34.7592
705.7774	36.25966
705.9303	33.66175
706.0831	33.32506
706.236	38.17459
706.3888	37.97539
706.5416	37.49258
706.6944	33.60865
706.8472	31.06197
707	29.6275
707.1528	33.60653
707.3056	38.853
707.4583	40.42481
707.6111	38.40139
707.7639	35.84259
707.9166	41.40192
708.0693	40.38774
708.222	38.72613
708.3748	41.2648
708.5275	36.6812
708.6802	36.07719
708.8328	37.5088
708.9855	34.21404
709.1382	38.30136
709.2909	35.57475
709.4435	38.37128
709.5962	36.89282
709.7488	38.64815
709.9014	38.9329
710.054	42.86135
710.2067	44.62883
710.3593	40.06655
710.5118	40.72834
710.6644	35.74866
710.817	40.05561
710.9695	38.36964
711.1221	37.87732
711.2747	38.98816
711.4272	41.16633
711.5797	40.00466
711.7322	39.5621
711.8848	39.47089
712.0373	39.47844
712.1898	43.43116
712.3422	44.43393
712.4948	43.54918
712.6472	44.37065
712.7996	42.11381
712.9521	44.04063
713.1046	45.81074
713.257	42.41948
713.4094	43.04094
713.5618	39.02966
713.7142	38.94889
713.8666	42.17633
714.019	39.33442
714.1714	47.9058
714.3237	46.06779
714.4761	39.70407
714.6285	43.83559
714.7808	41.59066
714.9331	43.72457
715.0854	44.81574
715.2378	43.92832
715.3901	45.32859
715.5424	44.83837
715.6947	46.26584
715.8469	43.95484
715.9992	41.22335
716.1515	40.05728
716.3037	40.10597
716.456	43.86187
716.6082	47.61476
716.7604	44.23365
716.9127	39.14465
717.0649	39.28907
717.2171	37.46776
717.3693	39.09586
717.5214	36.81081
717.6736	39.00951
717.8258	43.75176
717.978	39.11255
718.1301	40.34255
718.2822	37.25733
718.4344	39.54919
718.5865	40.78426
718.7386	40.17261
718.8907	39.57265
719.0428	44.37523
719.1949	39.93012
719.3469	39.6671
719.499	41.42941
719.6511	39.85142
719.8031	39.22397
719.9551	35.90815
720.1072	37.36438
720.2592	38.00733
720.4112	31.96093
720.5632	38.42645
720.7152	46.81606
720.8672	45.10515
721.0192	45.00298
721.1711	48.58737
721.3231	44.4758
721.475	48.52999
721.627	46.70938
721.7789	49.46172
721.9308	48.78701
722.0828	52.42076
722.2347	54.75108
722.3866	49.04599
722.5385	47.1856
722.6903	52.29099
722.8422	53.15136
722.9941	53.09067
723.1459	45.9215
723.2977	45.01725
723.4496	45.79882
723.6014	44.68114
723.7532	49.49831
723.905	48.02144
724.0568	54.21648
724.2086	42.23944
724.3604	40.47394
724.5121	46.43074
724.6639	46.6538
724.8157	48.82525
724.9674	53.41101
725.1191	46.57645
725.2709	48.49875
725.4226	47.02124
725.5743	44.94445
725.726	44.17279
725.8777	48.80501
726.0294	55.1081
726.181	52.47445
726.3327	46.7118
726.4844	49.35957
726.636	49.81555
726.7877	50.27785
726.9393	54.3617
727.0909	56.53571
727.2425	53.46449
727.3941	51.78078
727.5457	52.71422
727.6973	49.07049
727.8488	45.97729
728.0004	48.6819
728.1519	50.36607
728.3035	50.34323
728.455	49.8002
728.6066	54.36921
728.7581	56.03427
728.9095	53.26148
729.0611	52.00668
729.2126	50.43209
729.364	51.21625
729.5155	53.53436
729.667	55.41948
729.8184	58.73528
729.9698	59.26658
730.1213	56.73198
730.2727	54.54999
730.4241	55.76801
730.5756	55.37296
730.7269	60.11158
730.8784	61.46477
731.0297	62.36633
731.1811	60.85394
731.3325	56.46535
731.4838	61.36106
731.6351	60.99771
731.7865	59.13628
731.9378	60.45365
732.0891	62.16548
732.2404	70.93828
732.3917	64.50056
732.543	64.60108
732.6943	67.67211
732.8456	67.6391
732.9968	65.00631
733.1481	66.06371
733.2993	65.97469
733.4506	67.55669
733.6018	66.89249
733.753	67.86579
733.9042	70.39414
734.0554	73.78725
734.2066	71.3978
734.3578	74.08044
734.509	72.11254
734.6602	72.29353
734.8113	71.09986
734.9624	74.33339
735.1136	76.50083
735.2647	71.84624
735.4158	67.91386
735.5669	71.08147
735.718	71.26188
735.8691	71.33808
736.0201	68.8895
736.1713	69.4105
736.3223	69.48345
736.4733	71.70695
736.6244	73.90954
736.7755	80.09586
736.9265	78.91
737.0775	74.63409
737.2285	75.25323
737.3795	86.08778
737.5305	78.69765
737.6815	78.32792
737.8324	76.04179
737.9834	79.52581
738.1343	77.2095
738.2853	71.35799
738.4362	72.94904
738.5871	78.96262
738.738	78.44633
738.8889	78.62099
739.0399	84.54378
739.1907	82.11177
739.3416	84.27905
739.4925	79.66531
739.6433	79.41426
739.7942	82.79257
739.945	80.69273
740.0958	78.08434
740.2467	80.51522
740.3975	82.70294
740.5483	81.52705
740.6991	77.52752
740.8499	77.65503
741.0007	75.83095
741.1514	75.68996
741.3022	79.14668
741.4529	79.54935
741.6036	81.96759
741.7544	80.91068
741.9051	79.41341
742.0558	76.56068
742.2065	83.16219
742.3572	84.72746
742.5079	85.04684
742.6586	84.15765
742.8093	85.94814
742.9599	85.29309
743.1105	88.70634
743.2612	81.08109
743.4118	78.78299
743.5624	87.12338
743.7131	91.74354
743.8636	87.84308
744.0142	91.26177
744.1648	88.39391
744.3154	84.61327
744.4659	84.47587
744.6165	85.98303
744.767	81.62064
744.9176	82.61305
745.0681	86.27557
745.2186	83.37103
745.3691	87.00494
745.5197	86.88729
745.6702	89.41708
745.8206	93.30949
745.9711	85.22073
746.1215	90.71571
746.272	84.29959
746.4224	82.14988
746.5729	90.60818
746.7233	86.9983
746.8737	84.35362
747.0241	85.10783
747.1745	85.0793
747.3249	86.25921
747.4753	87.77499
747.6257	92.32192
747.776	91.33177
747.9264	94.45747
748.0767	86.32573
748.2271	88.10117
748.3774	84.59861
748.5276	89.52634
748.678	86.19695
748.8282	85.91498
748.9786	84.72925
749.1288	88.25529
749.2791	87.98412
749.4294	90.06371
749.5796	85.9066
749.7299	84.7139
749.8801	85.52119
750.0303	89.97617
750.1805	90.06161
750.3307	90.48866
750.4809	82.82894
750.6311	86.39246
750.7813	87.9548
750.9314	88.48511
751.0816	87.70029
751.2318	82.05842
751.3818	82.54793
751.532	82.0162
751.6821	83.75414
751.8322	84.34378
751.9823	87.93845
752.1324	89.18281
752.2825	89.02773
752.4326	82.76569
752.5826	85.3596
752.7327	88.63553
752.8827	92.48936
753.0327	86.92534
753.1827	84.57782
753.3328	85.05657
753.4828	85.0495
753.6328	88.81773
753.7828	91.52232
753.9327	88.25311
754.0827	90.65897
754.2327	90.451
754.3826	90.06537
754.5325	85.90051
754.6825	85.78507
754.8324	83.39204
754.9823	84.75208
755.1322	86.66962
755.2821	90.77858
755.432	88.08787
755.5818	89.69568
755.7318	86.57834
755.8816	85.50472
756.0314	81.36221
756.1813	79.7336
756.3311	82.83096
756.4809	89.69682
756.6307	91.93645
756.7805	88.84826
756.9303	85.11038
757.0801	83.18605
757.2299	85.18317
757.3796	80.69234
757.5294	83.05453
757.6791	80.53265
757.8289	83.79727
757.9786	83.51997
758.1283	85.54401
758.278	81.33323
758.4277	80.04996
758.5773	77.21307
758.7271	82.96578
758.8767	81.03231
759.0264	80.48599
759.176	74.93217
759.3256	73.20782
759.4753	56.76936
759.6249	39.2939
759.7745	38.22282
759.9241	34.6573
760.0737	27.94529
760.2233	24.75949
760.3729	21.95848
760.5224	19.62593
760.6719	21.04011
760.8215	24.30874
760.971	22.69657
761.1205	24.90305
761.2701	28.47894
761.4196	32.92642
761.5691	44.00178
761.7186	50.15641
761.868	51.01082
762.0175	61.26716
762.167	52.59179
762.3164	43.37288
762.4659	40.66386
762.6153	39.00406
762.7647	38.57593
762.9141	39.14725
763.0635	39.33145
763.2129	38.87737
763.3623	39.04933
763.5117	33.2182
763.661	36.74909
763.8104	43.45152
763.9597	43.58875
764.1091	42.88354
764.2584	47.41296
764.4077	44.86075
764.557	42.72806
764.7063	41.07741
764.8556	48.89865
765.0049	53.68121
765.1541	47.30882
765.3034	48.2886
765.4526	57.8821
765.6019	58.46535
765.7511	60.00825
765.9003	58.21443
766.0496	54.57457
766.1987	54.42719
766.348	57.99542
766.4971	60.05211
766.6463	62.09279
766.7955	62.11414
766.9446	66.67863
767.0938	64.64236
767.2429	69.73738
767.392	72.69495
767.5411	71.1638
767.6902	66.62578
767.8394	66.30188
767.9884	64.35006
768.1375	63.92094
768.2866	73.09085
768.4356	73.15753
768.5847	70.92304
768.7337	66.42149
768.8828	70.39282
769.0317	66.98888
769.1808	70.57425
769.3298	70.9891
769.4788	75.75327
769.6277	74.57915
769.7767	73.29266
769.9257	69.58749
770.0746	70.08721
770.2236	75.15839
770.3725	67.01392
770.5214	66.47653
770.6703	69.51184
770.8193	74.78786
770.9681	76.2591
771.1171	71.28976
771.2659	70.10141
771.4148	67.61343
771.5637	72.59556
771.7125	64.81557
771.8613	68.45724
772.0101	71.95591
772.159	73.4267
772.3078	65.42025
772.4566	71.43166
772.6054	67.731
772.7542	64.42027
772.903	66.2377
773.0517	69.04527
773.2004	71.96339
773.3492	71.73663
773.4979	68.1727
773.6467	65.64323
773.7953	61.36564
773.944	70.65778
774.0928	69.80419
774.2415	66.23007
774.3901	69.02866
774.5388	69.62226
774.6874	65.63753
774.8361	60.46304
774.9847	63.0153
775.1334	63.18254
775.282	63.55471
775.4305	66.69373
775.5792	72.59361
775.7277	65.26457
775.8763	61.73096
776.0249	63.07972
776.1735	68.75344
776.322	62.96815
776.4705	63.5573
776.6191	71.63239
776.7676	66.13936
776.9161	62.79165
777.0646	61.72505
777.2131	64.42963
777.3616	63.14791
777.5101	65.74999
777.6585	63.46098
777.8069	58.96693
777.9554	61.05123
778.1038	69.54613
778.2523	68.88464
778.4007	64.32037
778.5491	66.23161
778.6974	63.98541
778.8459	65.4445
778.9942	60.27491
779.1426	64.7103
779.291	64.92699
779.4393	65.26775
779.5876	65.65573
779.736	63.01943
779.8843	63.5783
780.0326	57.57372
780.1809	57.92972
780.3292	64.23438
780.4775	65.65871
780.6257	63.90001
780.774	65.56854
780.9222	62.0308
781.0704	62.94716
781.2187	67.68236
781.3669	65.92668
781.5151	64.08414
781.6633	66.43337
781.8115	65.48091
781.9597	62.66706
782.1078	60.6679
782.256	62.04703
782.4042	63.43028
782.5523	64.45993
782.7004	56.18705
782.8486	60.82546
782.9967	58.14069
783.1448	61.73535
783.2929	60.3897
783.441	61.30549
783.5891	65.91319
783.7371	61.17691
783.8851	55.85509
784.0332	64.13998
784.1812	60.36124
784.3293	57.82649
784.4773	58.75305
784.6253	61.04891
784.7733	63.06458
784.9213	59.32488
785.0692	57.86964
785.2172	64.71387
785.3652	59.36294
785.5131	54.7398
785.6611	56.80602
785.809	58.46651
785.9569	61.09464
786.1048	56.94165
786.2527	57.03568
786.4006	57.42493
786.5485	56.01752
786.6964	63.426
786.8442	60.96327
786.9921	63.07579
787.1399	61.59745
787.2877	59.37805
787.4355	56.18962
787.5833	56.86309
787.7311	58.9773
787.8789	61.56998
788.0267	60.34975
788.1745	53.61732
788.3223	55.65341
788.47	57.29057
788.6177	53.47564
788.7654	53.84739
788.9132	60.00386
789.0609	59.32441
789.2086	54.68674
789.3563	52.68606
789.504	52.60863
789.6517	48.77704
789.7993	50.95778
789.947	59.1559
790.0946	58.24661
790.2422	55.85625
790.3898	57.01572
790.5375	56.71299
790.6851	54.11049
790.8326	54.40753
790.9802	55.70755
791.1278	56.60924
791.2754	51.84675
791.423	59.21052
791.5705	57.63723
791.718	52.68482
791.8655	49.38059
792.0131	50.52667
792.1606	51.3606
792.308	54.8868
792.4556	56.76532
792.603	56.30264
792.7505	54.25486
792.8979	52.52061
793.0454	54.4917
793.1928	56.68153
793.3403	53.0156
793.4877	54.19751
793.6351	58.0111
793.7825	56.16861
793.9299	53.72895
794.0772	53.92981
794.2246	51.85693
794.3719	48.7675
794.5193	54.78694
794.6666	54.91232
794.814	49.35058
794.9613	54.6395
795.1086	52.58431
795.2559	50.90475
795.4032	54.89219
795.5505	51.51782
795.6978	51.08826
795.845	53.48228
795.9922	51.53556
796.1395	49.97448
796.2867	48.61039
796.4339	50.50592
796.5811	52.63446
796.7283	51.8783
796.8755	50.19534
797.0227	51.64842
797.1699	53.53698
797.317	49.50296
797.4642	45.50573
797.6113	46.49887
797.7584	50.8034
797.9056	50.22073
798.0527	48.46649
798.1998	50.40596
798.3469	49.19951
798.494	50.14401
798.641	49.2928
798.7881	47.11911
798.9351	48.86299
799.0822	48.68219
799.2292	50.91164
799.3762	55.59115
799.5232	50.97585
799.6702	46.52199
799.8172	44.99252
799.9642	45.18949
800.1111	47.13196
800.2581	47.92279
800.4051	48.05386
800.552	50.55672
800.6989	45.50105
800.8458	41.97573
800.9927	43.17918
801.1396	45.69526
801.2866	44.47857
801.4334	44.32959
801.5803	46.12012
801.7272	45.03574
801.874	46.05902
802.0209	48.7812
802.1677	47.46191
802.3145	46.53081
802.4613	47.93754
802.6081	46.25335
802.7549	47.451
802.9017	40.82198
803.0485	47.38243
803.1952	47.51651
803.342	50.3149
803.4887	45.4482
803.6354	45.59951
803.7822	46.93013
803.9289	46.18881
804.0756	43.00565
804.2223	44.02502
804.369	43.95496
804.5156	42.71125
804.6623	41.69836
804.8089	44.37006
804.9556	44.88863
805.1022	45.16669
805.2488	45.31891
805.3954	45.05094
805.542	43.22786
805.6886	46.36789
805.8352	45.66464
805.9818	46.99949
806.1283	47.80672
806.2749	46.63059
806.4214	50.06331
806.5679	49.15127
806.7145	47.8533
806.861	44.73183
807.0074	45.28675
807.154	44.80729
807.3004	43.64224
807.4469	46.98299
807.5934	45.32589
807.7398	45.18425
807.8862	46.18601
808.0327	44.36567
808.1791	41.18271
808.3255	47.94707
808.4719	41.69957
808.6183	41.02257
808.7647	41.80482
808.9111	44.00692
809.0574	46.21861
809.2037	41.17752
809.3501	36.50521
809.4965	40.0547
809.6428	39.42138
809.7891	37.0696
809.9354	39.93608
810.0817	42.64906
810.2279	39.25727
810.3742	40.97039
810.5204	42.16309
810.6667	39.92902
810.8129	38.91251
810.9592	36.51195
811.1054	36.97506
811.2516	38.03727
811.3978	34.6911
811.5439	38.57862
811.6901	39.16515
811.8363	39.23662
811.9825	39.82438
812.1286	38.84282
812.2748	37.90386
812.4209	38.64197
812.567	34.94309
812.7131	35.73514
812.8592	36.90313
813.0053	40.25983
813.1514	37.01841
813.2974	29.98718
813.4435	34.19548
813.5895	32.26137
813.7356	32.45154
813.8816	37.7576
814.0276	32.81533
814.1736	33.10287
814.3196	29.1794
814.4656	31.60523
814.6116	32.32401
814.7576	31.58551
814.9035	38.18758
815.0494	34.84772
815.1954	33.09093
815.3413	31.31198
815.4872	29.85388
815.6331	35.73313
815.779	35.73512
815.9249	32.06217
816.0707	36.36729
816.2166	28.57782
816.3625	25.71909
816.5083	25.57608
816.6542	30.01103
816.8	32.37056
816.9458	30.07448
817.0916	28.10831
817.2374	37.92156
817.3832	35.69396
817.5289	29.17029
817.6747	28.42741
817.8204	29.06626
817.9662	25.55912
818.1119	26.84294
818.2576	32.92955
818.4034	27.94919
818.5491	33.15293
818.6948	29.90897
818.8405	28.02037
818.9861	24.88017
819.1318	30.08825
819.2774	32.61748
819.423	29.998
819.5687	31.23074
819.7143	24.91281
819.8599	27.35231
820.0055	27.2501
820.1511	29.33181
820.2967	31.3325
820.4422	32.66118
820.5878	31.81358
820.7333	28.07001
820.8788	30.05948
821.0244	30.23453
821.1699	29.74593
821.3154	30.2876
821.4609	33.04886
821.6064	31.98005
821.7519	35.48523
821.8973	33.12204
822.0428	25.23767
822.1882	30.51905
822.3337	28.64208
822.4791	29.16206
822.6245	22.11373
822.7699	18.30645
822.9153	22.21177
823.0607	17.91619
823.2061	17.82943
823.3514	24.25792
823.4968	29.71395
823.6422	28.15967
823.7875	28.54925
823.9328	28.74249
824.0781	25.97661
824.2234	29.23996
824.3687	30.31931
824.514	30.55641
824.6592	34.05554
824.8045	33.69445
824.9498	28.20823
825.095	31.51265
825.2402	26.3898
825.3854	28.30254
825.5306	36.3039
825.6758	28.58353
825.821	27.81915
825.9662	27.16094
826.1114	28.52096
826.2565	25.1736
826.4017	28.29546
826.5468	28.15828
826.692	27.59785
826.837	31.11038
826.9822	29.75728
827.1273	31.08254
827.2723	26.64757
827.4174	26.17205
827.5625	24.26707
827.7075	23.951
827.8526	25.91106
827.9976	28.22576
828.1426	26.63503
828.2877	25.18626
828.4327	33.86441
828.5776	29.45477
828.7227	26.62249
828.8676	26.4203
829.0126	24.99101
829.1575	24.64785
829.3024	29.17342
829.4474	26.33257
829.5923	24.75024
829.7372	23.51172
829.8821	25.2756
830.027	27.09484
830.1719	24.81173
830.3168	29.32109
830.4616	25.99125
830.6064	27.71675
830.7513	24.45156
830.8961	25.21712
831.041	27.96915
831.1857	29.35662
831.3306	26.19035
831.4753	25.13974
831.6201	23.29825
831.7649	27.50764
831.9096	30.41854
832.0544	26.77332
832.1991	23.90395
832.3438	24.18007
832.4885	27.39818
832.6332	22.88197
832.778	25.16459
832.9226	27.42823
833.0673	29.76884
833.2119	26.51836
833.3566	26.01046
833.5012	26.21283
833.6459	28.15921
833.7905	25.02938
833.9351	26.98414
834.0797	24.46871
834.2243	22.52065
834.3688	23.6453
834.5134	28.43814
834.658	26.23379
834.8026	28.85725
834.9471	30.25755
835.0916	27.91381
835.2361	22.60819
835.3806	25.06071
835.5251	27.15667
835.6696	29.28696
835.8141	30.10838
835.9586	28.87489
836.103	26.26179
836.2474	29.64057
836.3918	26.50879
836.5363	29.03352
836.6807	24.23491
836.8251	27.69901
836.9695	27.17317
837.1138	24.57302
837.2582	23.11258
837.4026	26.29347
837.5469	22.9444
837.6913	29.24785
837.8356	27.33702
837.9799	23.81427
838.1242	27.32436
838.2686	26.9698
838.4128	28.51971
838.5571	29.78903
838.7014	25.66961
838.8456	22.44402
838.9899	23.03532
839.1341	30.42186
839.2783	32.35666
839.4225	36.4657
839.5667	30.91942
839.7109	27.30502
839.8551	25.69855
839.9993	26.05878
840.1434	24.82743
840.2876	24.13251
840.4317	24.26789
840.5759	26.95676
840.72	25.44296
840.8641	23.60089
841.0082	21.74028
841.1523	26.62318
841.2963	28.43596
841.4404	27.40397
841.5845	24.95471
841.7285	29.31769
841.8726	27.94157
842.0165	26.13361
842.1606	29.31771
842.3046	29.24038
842.4485	25.17588
842.5925	24.65298
842.7365	26.45698
842.8805	23.71393
843.0244	27.39174
843.1684	28.47507
843.3123	23.51806
843.4562	26.70368
843.6002	25.18925
843.744	23.64211
843.8879	22.08891
844.0318	24.8145
844.1757	23.6123
844.3195	27.80161
844.4634	31.97814
844.6072	26.26378
844.751	28.2361
844.8948	23.23831
845.0386	23.90107
845.1824	24.72879
845.3262	29.0354
845.47	27.74635
845.6138	26.95261
845.7575	26.88247
845.9012	22.37879
846.045	20.78699
846.1887	22.72078
846.3324	26.48262
846.4761	26.777
846.6198	27.14565
846.7635	25.38554
846.9071	22.60921
847.0508	22.83925
847.1944	24.32182
847.3381	24.80347
847.4817	26.29084
847.6253	28.30047
847.7689	25.40266
847.9125	24.07119
848.0561	26.7017
848.1996	24.75689
848.3432	28.11514
848.4868	27.86773
848.6303	21.97404
848.7738	20.74851
848.9174	25.55452
849.0609	25.06137
849.2043	31.04316
849.3478	29.25091
849.4913	28.18844
849.6348	23.36699
849.7782	22.75736
849.9217	19.92128
850.0651	21.36998
850.2086	20.1729
850.3519	22.29082
850.4954	29.27551
850.6387	23.96099
850.7821	23.82402
850.9255	20.42271
851.0688	26.84171
851.2122	22.94757
851.3555	22.43479
851.4988	22.87055
851.6422	24.66079
851.7855	22.96077
851.9288	23.06336
852.0721	21.96907
852.2153	26.17122
852.3586	28.26655
852.5018	25.5204
852.6451	22.04744
852.7883	19.83349
852.9315	20.62753
853.0748	24.36106
853.218	26.24751
853.3611	23.99509
853.5043	26.53363
853.6475	25.10461
853.7906	18.19567
853.9338	20.1856
854.0769	15.74924
854.22	18.37171
854.3632	19.38625
854.5063	18.87278
854.6494	19.34353
854.7924	21.95411
854.9355	21.75075
855.0786	23.07492
855.2216	25.14587
855.3647	24.61221
855.5077	22.86659
855.6507	24.95345
855.7937	26.05283
855.9367	19.29996
856.0797	24.58102
856.2227	27.55067
856.3657	24.49992
856.5086	21.57646
856.6516	18.89932
856.7945	27.09425
856.9374	20.83908
857.0803	21.1722
857.2232	23.76822
857.3661	21.11321
857.509	20.41506
857.6519	20.83994
857.7947	17.45392
857.9376	19.84087
858.0804	21.81758
858.2232	24.42046
858.366	23.86791
858.5089	25.03986
858.6516	18.93296
858.7944	21.30772
858.9372	18.85195
859.08	22.14745
859.2227	19.8378
859.3654	17.60492
859.5082	18.02114
859.6509	23.50889
859.7936	26.87389
859.9363	27.75683
860.079	19.61685
860.2217	23.37806
860.3643	18.80058
860.507	20.6021
860.6496	24.93646
860.7922	21.15142
860.9349	19.66003
861.0775	23.31287
861.2201	19.51791
861.3627	21.59557
861.5052	20.71411
861.6478	19.42818
861.7904	18.887
861.9329	17.03121
862.0755	18.82118
862.218	23.36013
862.3605	19.90047
862.503	21.96112
862.6455	22.4007
862.788	20.66176
862.9305	18.80044
863.0729	21.58255
863.2154	22.23616
863.3578	25.25445
863.5002	26.61748
863.6426	21.68694
863.7851	21.42342
863.9275	20.84262
864.0698	21.04369
864.2122	18.90022
864.3546	22.02823
864.4969	17.84988
864.6393	21.08176
864.7816	23.66987
864.924	24.17386
865.0662	21.54556
865.2086	18.74332
865.3508	19.3476
865.4931	20.29408
865.6354	20.60703
865.7776	22.10042
865.9199	20.56484
866.0621	17.12466
866.2043	13.19324
866.3466	13.9558
866.4888	17.20703
866.6309	16.20368
866.7731	19.77232
866.9153	13.8911
867.0574	18.1406
867.1996	21.02327
867.3417	20.42795
867.4839	15.84402
867.626	23.43492
867.7681	22.94659
867.9102	19.11834
868.0522	25.62332
868.1943	22.63772
868.3364	18.78949
868.4785	21.31505
868.6205	16.58406
868.7625	17.61849
868.9045	21.91721
869.0465	20.01459
869.1885	21.11446
869.3305	22.65607
869.4725	17.25939
869.6144	13.98928
869.7564	20.7122
869.8983	17.74711
870.0403	17.29752
870.1822	21.01811
870.3241	22.27317
870.466	20.62726
870.6079	19.49367
870.7498	20.04264
870.8916	20.65393
871.0335	19.41777
871.1754	13.6673
871.3171	17.05032
871.459	19.71495
871.6008	18.52944
871.7426	16.9971
871.8844	18.84679
872.0262	16.69884
872.1679	13.72204
872.3097	20.49671
872.4514	15.0781
872.5931	13.42147
872.7349	20.62485
872.8766	19.98148
873.0183	15.90264
873.16	15.5481
873.3017	18.97931
873.4434	21.5461
873.585	18.72029
873.7266	21.05202
873.8683	20.90109
874.0099	14.07324
874.1516	14.46024
874.2932	15.26201
874.4348	16.49841
874.5763	20.41605
874.7179	19.13552
874.8594	12.88498
875.001	15.5175
875.1425	15.70378
875.2841	13.84199
875.4256	14.98456
875.5671	17.36935
875.7086	14.54564
875.85	15.12898
875.9915	18.94332
876.133	13.1709
876.2744	15.06372
876.4159	13.49705
876.5573	15.06406
876.6987	18.77897
876.8401	15.52265
876.9815	14.11807
877.1229	15.28128
877.2643	16.09857
877.4056	12.16751
877.547	16.01648
877.6884	19.29497
877.8297	15.63776
877.971	13.4111
878.1123	16.37203
878.2536	18.75014
878.3949	17.96667
878.5362	14.41756
878.6774	17.36776
878.8187	16.72079
878.9599	11.8859
879.1011	11.64948
879.2424	12.16376
879.3836	17.78131
879.5248	13.27851
879.666	16.48629
879.8071	17.09388
879.9483	13.81967
880.0895	12.0488
880.2306	17.16621
880.3718	18.51981
880.5129	16.46223
880.654	13.68146
880.7951	14.5788
880.9362	14.725
881.0773	15.45543
881.2183	17.77489
881.3594	16.62201
881.5004	13.80726
881.6414	13.78225
881.7825	14.31455
881.9235	14.06022
882.0645	11.0747
882.2054	13.01446
882.3464	15.66323
882.4874	16.1035
882.6284	13.44524
882.7693	14.69559
882.9103	17.28943
883.0512	13.58068
883.1921	12.37199
883.333	14.56883
883.4739	11.12165
883.6147	12.87074
883.7556	13.28875
883.8965	16.7781
884.0374	16.5197
884.1782	14.17834
884.319	19.70218
884.4598	18.79041
884.6006	16.84829
884.7414	18.39401
884.8822	18.17183
885.0229	14.07652
885.1637	14.10105
885.3044	16.41383
885.4452	13.28091
885.5859	12.80468
885.7266	18.94727
885.8673	13.67696
886.008	16.24484
886.1487	8.240405
886.2894	16.7434
886.43	15.00087
886.5707	14.45486
886.7113	16.33382
886.8519	16.14404
886.9926	12.01265
887.1331	14.19274
887.2737	15.99463
887.4143	16.46909
887.5549	11.11089
887.6954	12.26382
887.836	16.79196
887.9765	15.29484
888.1171	14.92399
888.2576	15.82809
888.3981	17.71157
888.5386	16.42015
888.679	18.20367
888.8195	13.97803
888.96	12.91842
889.1004	13.45133
889.2408	15.1066
889.3813	14.41741
889.5217	13.5504
889.6621	8.515794
889.8025	11.32561
889.9429	9.858266
890.0833	13.28628
890.2236	11.0307
890.364	12.53839
890.5043	14.03519
890.6446	17.97672
890.7849	17.90014
890.9252	16.18862
891.0655	17.638
891.2058	17.87049
891.3461	10.37804
891.4863	10.89755
891.6266	16.5357
891.7668	18.99367
891.907	15.66261
892.0472	12.76894
892.1874	15.264
892.3276	14.63443
892.4678	15.70098
892.608	11.92017
892.7481	13.82761
892.8883	12.63435
893.0284	16.66111
893.1685	19.93487
893.3087	13.2163
893.4487	11.13407
893.5889	13.43491
893.7289	14.6503
893.869	13.84746
894.009	9.346935
894.1491	11.17403
894.2891	12.08121
894.4291	8.904347
894.5692	10.5667
894.7092	14.60165
894.8491	9.266688
894.9891	13.71501
895.1291	6.972476
895.269	8.76918
895.409	11.21769
895.549	14.3925
895.6888	11.01911
895.8288	13.08934
895.9687	11.17912
896.1086	9.654185
896.2484	9.691069
896.3883	10.92914
896.5281	10.63809
896.668	12.43254
896.8079	11.63463
896.9476	11.21269
897.0875	9.035857
897.2272	7.189063
897.3671	9.809834
897.5068	8.441998
897.6466	10.34134
897.7864	6.418808
897.9261	7.022331
898.0658	11.82888
898.2056	7.128967
898.3453	4.853179
898.4849	11.04088
898.6246	10.78243
898.7643	9.310918
898.904	6.800726
899.0436	6.965991
899.1833	5.972332
899.3229	8.36284
899.4625	10.64802
899.6021	11.475
899.7417	12.92584
899.8813	7.275963
900.0209	7.27799
900.1605	9.308737
900.3	7.205619
900.4395	12.96781
900.579	8.268902
900.7186	9.153137
900.8581	7.42579
900.9976	10.87807
901.1371	10.75279
901.2766	12.10668
901.416	10.27791
901.5555	10.61904
901.6949	16.94342
901.8344	13.35898
901.9738	9.876884
902.1132	6.380706
902.2526	11.17157
902.3919	14.00131
902.5313	8.409763
902.6707	7.875979
