SPECTRUM DATA FILE
SpectrumCount:	1
PixelCount:	3648
UserName:	ToughBook User
SampleName:	
LightSource:	
Comments:	
DeviceName:	Qwave
DeviceManufacturer:	Broadcom
DeviceSerialNo:	11311

Name:	last spectrum
Date:	2024-05-02T15:07:11.1608765+02:00
ExposureTime:	0.02
TemporalAvg:	1
IntensityUnit:	normalizedCounts
CCDLoadLevel:	0.02268609
Temperature:	28.06824
DiagramColor:	200
ProcessingSteps:	335

Wavelength [nm]	Intensity1
334.421	4.859614
334.5891	7.211042
334.7573	2.303706
334.9254	1.668082
335.0935	2.254721
335.2616	1.315481
335.4297	0.9853396
335.5978	6.182883
335.7659	2.949954
335.934	3.20961
336.1021	5.587534
336.2701	3.026491
336.4382	3.30218
336.6063	7.726718
336.7744	3.429112
336.9424	0.9657356
337.1105	0.2029449
337.2785	5.686406
337.4466	6.221103
337.6146	5.090114
337.7827	6.80224
337.9507	3.196494
338.1187	2.538051
338.2867	2.960048
338.4548	7.841055
338.6228	2.603268
338.7908	4.106593
338.9588	3.098808
339.1268	1.737553
339.2948	3.012557
339.4628	4.884259
339.6308	6.901588
339.7988	4.462634
339.9667	2.289721
340.1347	5.72993
340.3027	1.001202
340.4707	3.853806
340.6386	4.312402
340.8066	3.701964
340.9745	5.496442
341.1425	2.653005
341.3104	5.479002
341.4784	4.577202
341.6463	4.241338
341.8142	4.594851
341.9821	4.101178
342.1501	5.844345
342.318	5.246826
342.4859	4.532715
342.6538	2.093503
342.8217	3.681241
342.9896	7.430173
343.1575	3.424883
343.3254	3.398746
343.4933	2.120011
343.6612	4.15635
343.829	8.339228
343.9969	3.730657
344.1648	1.249995
344.3326	5.84802
344.5005	5.184258
344.6683	0.5913849
344.8362	3.841865
345.004	6.280329
345.1719	10.07014
345.3397	3.401657
345.5075	1.512067
345.6754	2.954637
345.8432	4.857364
346.011	8.393447
346.1788	2.809714
346.3466	5.160417
346.5144	4.040219
346.6822	4.636997
346.85	7.498136
347.0178	6.154607
347.1856	3.676862
347.3534	1.601531
347.5211	0.6707617
347.6889	7.295347
347.8567	8.501185
348.0244	2.814219
348.1922	5.145697
348.3599	6.79003
348.5277	2.64211
348.6954	3.550462
348.8632	1.236552
349.0309	8.322225
349.1986	5.739124
349.3663	3.271848
349.5341	2.599862
349.7018	1.24309
349.8695	4.414532
350.0372	9.223913
350.2049	4.933081
350.3726	3.890013
350.5403	2.298665
350.7079	6.445496
350.8756	9.358329
351.0433	3.431677
351.211	6.059844
351.3786	7.65009
351.5463	5.581936
351.714	7.199185
351.8816	8.066792
352.0493	4.030003
352.2169	0.6646609
352.3846	3.923769
352.5522	2.739269
352.7198	5.941999
352.8875	6.613636
353.0551	7.406772
353.2227	6.034791
353.3903	6.163711
353.5579	2.739259
353.7255	10.9616
353.8931	5.734923
354.0607	8.251555
354.2283	9.60989
354.3958	8.579022
354.5634	5.485863
354.731	5.112819
354.8986	2.043418
355.0661	2.165541
355.2337	6.536303
355.4012	8.30293
355.5688	8.159701
355.7363	8.123713
355.9039	8.22619
356.0714	5.35331
356.239	8.27657
356.4065	2.928776
356.574	7.937913
356.7415	8.170788
356.909	5.547512
357.0765	5.933518
357.244	4.590803
357.4115	1.054846
357.579	1.537936
357.7465	-1.19883
357.914	3.71492
358.0815	5.105305
358.249	4.337107
358.4164	8.066258
358.5839	5.93856
358.7513	9.359548
358.9188	6.130896
359.0862	7.132099
359.2537	5.114981
359.4211	3.61638
359.5886	4.28805
359.756	3.533967
359.9234	5.550201
360.0909	6.479069
360.2583	6.407692
360.4257	7.553115
360.5931	5.699871
360.7605	4.55207
360.9279	2.726981
361.0953	7.207409
361.2627	4.46477
361.4301	8.10414
361.5974	5.922664
361.7648	3.079214
361.9322	3.969275
362.0995	7.330146
362.2669	4.813432
362.4343	3.723253
362.6016	6.402298
362.769	5.216854
362.9363	7.177275
363.1036	7.763276
363.271	5.616642
363.4383	5.27989
363.6056	10.40402
363.7729	8.839181
363.9402	9.501507
364.1075	7.519016
364.2748	7.750071
364.4421	4.576149
364.6094	4.196711
364.7767	4.674715
364.944	4.662266
365.1113	3.861902
365.2786	5.679191
365.4458	5.805148
365.6131	5.052777
365.7803	9.026562
365.9476	3.734546
366.1148	4.010672
366.2821	7.385593
366.4493	6.996258
366.6166	8.892897
366.7838	8.566264
366.951	5.216442
367.1182	3.618022
367.2855	9.09044
367.4527	8.79428
367.6199	3.773887
367.7871	3.02239
367.9543	9.38864
368.1215	7.458446
368.2886	7.675821
368.4558	7.317763
368.623	3.925103
368.7902	5.382674
368.9573	11.77925
369.1245	8.430055
369.2917	3.172357
369.4588	8.436899
369.6259	6.606237
369.7931	5.957736
369.9602	6.771465
370.1274	6.068779
370.2945	5.97517
370.4616	0.8107356
370.6287	6.273849
370.7958	8.159988
370.963	8.469288
371.1301	9.075303
371.2971	8.172057
371.4643	7.801271
371.6313	8.974416
371.7984	8.891205
371.9655	7.710215
372.1326	3.561172
372.2997	5.659704
372.4667	4.762093
372.6338	6.580062
372.8008	5.963423
372.9679	10.35631
373.1349	8.170222
373.3019	11.29393
373.469	11.54374
373.636	9.130398
373.803	10.70004
373.9701	13.53415
374.1371	6.872093
374.3041	10.62793
374.4711	9.855018
374.6381	2.004357
374.8051	5.761602
374.9721	8.702218
375.1391	9.771589
375.3061	7.593091
375.473	7.678854
375.64	6.198196
375.8069	4.463029
375.9739	9.575297
376.1409	9.387749
376.3078	6.137738
376.4748	7.43134
376.6417	6.657679
376.8087	4.987048
376.9756	4.509322
377.1425	5.91354
377.3094	13.53001
377.4763	13.08805
377.6432	5.409177
377.8102	5.489658
377.9771	4.604246
378.144	5.872948
378.3109	7.467749
378.4777	10.25296
378.6446	9.565853
378.8115	10.63984
378.9784	5.914012
379.1452	9.022537
379.3121	6.311316
379.4789	9.151745
379.6458	7.489314
379.8127	7.868207
379.9795	9.759628
380.1463	7.971738
380.3131	5.127681
380.48	7.333008
380.6468	7.406916
380.8136	9.046156
380.9804	7.24556
381.1472	9.41455
381.314	10.33414
381.4808	7.077678
381.6476	7.174105
381.8144	9.369273
381.9812	6.885241
382.148	9.327976
382.3147	9.392175
382.4815	5.700373
382.6483	3.44522
382.815	5.125258
382.9818	11.28474
383.1485	8.943752
383.3153	9.831366
383.482	7.96644
383.6487	8.782665
383.8155	5.545126
383.9822	3.004438
384.1489	8.896218
384.3156	8.960819
384.4823	12.30189
384.649	10.41943
384.8157	14.33789
384.9824	3.392498
385.1491	11.12534
385.3158	9.884115
385.4825	12.31644
385.6491	12.10644
385.8158	10.52113
385.9825	9.984828
386.1491	10.57472
386.3157	7.833051
386.4824	7.227032
386.649	9.89313
386.8157	9.298863
386.9823	9.702316
387.1489	10.94531
387.3156	14.53689
387.4821	10.46612
387.6488	9.028669
387.8154	8.953392
387.982	7.081409
388.1486	7.645028
388.3152	8.168115
388.4818	10.55963
388.6483	10.41059
388.8149	9.56367
388.9815	8.270535
389.148	8.605494
389.3146	8.595017
389.4811	11.27763
389.6477	8.424562
389.8142	12.55472
389.9808	10.84971
390.1473	12.20867
390.3138	10.67912
390.4804	4.148165
390.6469	10.25768
390.8134	12.88301
390.9799	9.774466
391.1464	12.6741
391.3129	8.046158
391.4794	7.015795
391.6459	11.78024
391.8124	10.96254
391.9789	7.209689
392.1453	9.074442
392.3118	9.582216
392.4782	7.499701
392.6447	6.335687
392.8112	5.513854
392.9776	5.130257
393.144	8.422439
393.3105	6.979498
393.4769	9.987765
393.6433	6.975398
393.8098	7.578294
393.9762	9.03248
394.1426	10.36104
394.309	8.444565
394.4754	10.92297
394.6418	9.142088
394.8082	11.58035
394.9746	14.20856
395.141	12.19913
395.3073	15.17677
395.4737	12.23837
395.64	7.575278
395.8064	8.965335
395.9728	12.44241
396.1391	13.82994
396.3055	12.4849
396.4718	10.72364
396.6381	10.9567
396.8045	7.367146
396.9708	12.80136
397.1371	9.110328
397.3034	10.17888
397.4697	13.64194
397.636	7.825694
397.8023	8.447472
397.9686	12.71811
398.1349	14.59933
398.3012	10.56962
398.4675	11.39995
398.6337	12.53799
398.8	15.0234
398.9662	15.12691
399.1325	13.20774
399.2988	12.49907
399.465	9.58761
399.6313	12.51685
399.7975	17.09468
399.9637	15.21267
400.1299	13.29943
400.2961	13.44875
400.4624	11.88997
400.6286	13.68307
400.7948	15.77416
400.961	16.72761
401.1272	13.62676
401.2934	12.72686
401.4595	13.58329
401.6257	14.49552
401.7919	16.22022
401.9581	14.17364
402.1242	15.02421
402.2904	12.81676
402.4565	13.9563
402.6227	10.65454
402.7888	20.93908
402.955	14.51334
403.1211	10.52646
403.2872	11.75618
403.4533	15.07711
403.6194	21.1483
403.7856	16.66916
403.9517	16.3431
404.1177	14.43137
404.2838	11.90805
404.4499	11.88473
404.616	14.49488
404.7821	13.6191
404.9482	13.40569
405.1142	12.36375
405.2803	11.69298
405.4464	10.46337
405.6124	14.99185
405.7784	11.32827
405.9445	16.35818
406.1105	20.72101
406.2766	13.3253
406.4426	13.71536
406.6086	14.77089
406.7746	13.06945
406.9406	14.56386
407.1066	10.50676
407.2726	11.61033
407.4386	19.16567
407.6046	20.84105
407.7706	16.35555
407.9366	14.61051
408.1025	14.86422
408.2685	17.59361
408.4344	15.11101
408.6004	18.94574
408.7664	17.38356
408.9323	18.74111
409.0983	17.20477
409.2642	10.73569
409.4301	19.18155
409.596	22.22465
409.762	16.61479
409.9279	17.49337
410.0938	13.71929
410.2597	11.7101
410.4256	12.45077
410.5915	14.25333
410.7574	13.35369
410.9232	13.9123
411.0891	18.7426
411.255	22.72209
411.4209	20.20007
411.5867	23.83076
411.7526	23.714
411.9184	13.60953
412.0843	15.0746
412.2501	21.42576
412.4159	16.04622
412.5818	20.49062
412.7476	15.2134
412.9134	17.22664
413.0792	22.14105
413.245	24.33241
413.4108	18.04719
413.5766	15.11952
413.7424	17.60357
413.9082	20.99736
414.074	16.44339
414.2397	19.20204
414.4055	14.84589
414.5713	11.44533
414.737	14.61458
414.9028	11.93926
415.0685	17.354
415.2343	15.33226
415.4	14.10336
415.5658	18.57934
415.7315	16.75902
415.8972	14.38672
416.0629	16.82385
416.2286	18.56973
416.3943	20.03379
416.56	19.43323
416.7257	20.00786
416.8914	18.53466
417.0571	20.44199
417.2228	17.72708
417.3884	17.42025
417.5541	16.03867
417.7198	17.97523
417.8854	17.45754
418.0511	20.90904
418.2167	17.96448
418.3824	17.8845
418.548	18.40123
418.7136	13.47195
418.8792	11.76898
419.0449	17.31075
419.2105	17.24472
419.3761	21.34706
419.5417	18.74243
419.7073	17.51081
419.8729	19.76553
420.0385	17.89434
420.204	14.46568
420.3696	19.20993
420.5352	21.09091
420.7007	18.55335
420.8663	22.27594
421.0319	22.61288
421.1974	22.09883
421.3629	27.45383
421.5285	24.99736
421.694	17.20676
421.8595	22.19428
422.0251	22.84613
422.1906	21.81929
422.3561	19.90611
422.5216	18.74065
422.6871	19.45558
422.8526	23.00627
423.0181	23.82284
423.1835	19.40709
423.349	17.35063
423.5145	25.23665
423.68	22.43114
423.8454	24.68786
424.0109	22.56133
424.1763	23.61691
424.3418	23.67933
424.5072	19.36529
424.6726	20.12331
424.838	22.71387
425.0035	24.4453
425.1689	23.59997
425.3343	25.06872
425.4997	24.77452
425.6651	18.19759
425.8305	22.25163
425.9959	25.15537
426.1613	21.813
426.3267	21.32563
426.492	26.65595
426.6574	25.21239
426.8228	20.41455
426.9881	23.53856
427.1534	25.85348
427.3188	23.11134
427.4841	21.90888
427.6495	24.58756
427.8148	22.16607
427.9801	21.95087
428.1454	24.51881
428.3107	26.93634
428.476	25.42085
428.6414	21.29978
428.8066	23.34768
428.9719	21.00681
429.1372	24.3112
429.3025	26.20369
429.4678	24.06452
429.633	22.60317
429.7983	19.24753
429.9636	19.40086
430.1288	20.61169
430.294	21.93063
430.4593	23.179
430.6245	18.32647
430.7897	16.35735
430.955	21.63572
431.1202	23.03003
431.2854	21.41064
431.4506	19.75373
431.6158	23.5412
431.781	28.62354
431.9462	30.12159
432.1114	28.49217
432.2766	24.1383
432.4417	21.81198
432.6069	23.68741
432.772	23.95039
432.9372	27.7958
433.1024	27.95161
433.2675	28.43224
433.4326	27.92511
433.5977	23.68984
433.7629	23.601
433.928	26.84208
434.0931	22.44447
434.2582	21.94802
434.4233	25.55136
434.5884	23.92354
434.7535	31.79701
434.9186	34.66439
435.0837	30.88907
435.2488	30.91648
435.4138	27.0828
435.5789	21.41284
435.744	27.53069
435.909	27.09765
436.0741	28.12808
436.2391	27.62694
436.4042	32.2765
436.5692	28.86142
436.7342	28.68053
436.8992	28.38918
437.0643	30.7329
437.2293	22.67037
437.3943	29.94117
437.5593	31.75135
437.7243	31.84904
437.8893	31.6797
438.0542	31.00944
438.2192	27.32355
438.3842	27.15401
438.5491	25.66936
438.7141	28.46283
438.8791	28.10354
439.044	29.48112
439.209	30.90427
439.3739	31.41761
439.5388	31.13536
439.7037	30.94321
439.8687	33.80212
440.0336	35.77097
440.1985	34.66742
440.3634	32.30239
440.5283	22.07069
440.6932	29.27908
440.8581	28.11944
441.0229	33.82727
441.1878	30.38144
441.3527	33.39683
441.5175	33.28473
441.6824	32.74443
441.8472	33.80939
442.0121	33.22982
442.1769	33.39652
442.3418	33.02692
442.5066	32.01762
442.6714	32.94651
442.8362	34.84888
443.001	33.7923
443.1659	30.54359
443.3307	28.70759
443.4955	33.95928
443.6602	34.22619
443.825	32.74283
443.9898	33.50205
444.1546	31.3099
444.3193	33.66161
444.4841	33.32895
444.6488	32.6499
444.8136	34.23029
444.9783	31.37054
445.1431	35.47359
445.3078	35.64886
445.4725	31.23823
445.6372	28.67862
445.802	27.22019
445.9667	30.66238
446.1314	36.26455
446.2961	34.0057
446.4608	32.98589
446.6255	34.16117
446.7901	29.21883
446.9548	32.52705
447.1195	34.39249
447.2841	34.03002
447.4488	33.9268
447.6134	34.19961
447.7781	35.14477
447.9427	35.21826
448.1074	35.49895
448.272	37.48051
448.4366	36.05584
448.6012	37.14891
448.7658	36.46941
448.9305	34.21436
449.095	35.33851
449.2596	35.93309
449.4242	37.42241
449.5888	35.24852
449.7534	36.3733
449.9179	40.06598
450.0825	38.89724
450.2471	34.45562
450.4116	35.54545
450.5762	37.01806
450.7407	39.48517
450.9052	38.862
451.0698	41.72491
451.2343	41.19963
451.3988	34.7517
451.5633	35.15104
451.7278	37.6267
451.8923	39.06596
452.0568	40.14308
452.2213	38.07394
452.3858	42.09927
452.5503	40.86035
452.7148	35.09949
452.8792	38.0969
453.0437	37.24673
453.2081	36.0301
453.3726	34.6055
453.537	35.53472
453.7015	40.06939
453.8659	40.2801
454.0303	38.35599
454.1947	38.56391
454.3592	41.19686
454.5236	39.00034
454.688	39.20156
454.8524	40.75326
455.0168	39.4113
455.1811	38.68976
455.3455	37.61693
455.5099	34.95034
455.6743	40.01351
455.8386	45.89796
456.003	43.86162
456.1673	42.1356
456.3317	40.7677
456.496	43.17358
456.6603	45.72459
456.8246	36.3016
456.989	36.27547
457.1533	40.36441
457.3176	43.73175
457.4819	45.52757
457.6462	44.33273
457.8105	40.79453
457.9748	39.06427
458.1391	36.73339
458.3033	41.01134
458.4676	43.01198
458.6319	37.04084
458.7961	41.53029
458.9604	41.71912
459.1246	45.29429
459.2888	40.5712
459.4531	37.74536
459.6173	38.8884
459.7815	40.70597
459.9457	39.26767
460.11	40.03991
460.2741	40.20593
460.4384	38.41684
460.6025	38.75973
460.7667	37.47562
460.9309	37.86365
461.0951	38.78358
461.2592	38.19979
461.4234	37.37477
461.5876	41.26975
461.7517	38.25179
461.9159	41.5169
462.08	36.55008
462.2441	37.44595
462.4082	40.0518
462.5724	35.82573
462.7365	40.47614
462.9006	45.36548
463.0647	44.55707
463.2288	46.03277
463.3929	42.59739
463.557	40.17444
463.721	39.35278
463.8851	41.13663
464.0492	36.16168
464.2132	46.14186
464.3773	44.48616
464.5414	42.72143
464.7054	39.53927
464.8694	34.95779
465.0334	39.47713
465.1975	42.46606
465.3615	39.73807
465.5255	39.86079
465.6895	39.50864
465.8535	41.64125
466.0175	37.8142
466.1815	36.87637
466.3455	39.4383
466.5095	42.45608
466.6734	36.20535
466.8374	39.09475
467.0014	41.34849
467.1653	39.73344
467.3293	38.93951
467.4932	39.30677
467.6571	46.02444
467.8211	38.63153
467.985	35.72131
468.1489	40.15683
468.3128	43.85659
468.4767	38.04032
468.6406	38.45375
468.8045	38.50384
468.9684	40.4745
469.1323	43.54007
469.2962	40.4081
469.46	43.4654
469.6239	43.84987
469.7878	43.38066
469.9516	38.80986
470.1154	39.35167
470.2793	40.11821
470.4431	39.8945
470.607	41.77808
470.7708	40.1652
470.9346	43.5694
471.0984	42.17055
471.2622	47.12271
471.426	43.49666
471.5898	42.99171
471.7536	41.23927
471.9174	40.95369
472.0811	44.84587
472.2449	49.53068
472.4087	43.12763
472.5724	44.44859
472.7362	44.10227
472.8999	39.5066
473.0637	37.18854
473.2274	41.11389
473.3911	45.08808
473.5548	45.91883
473.7185	42.85624
473.8822	39.00293
474.0459	49.77642
474.2096	46.26151
474.3733	46.343
474.537	44.55821
474.7007	47.42643
474.8643	41.79682
475.028	42.16141
475.1917	40.69986
475.3553	40.7335
475.519	41.30954
475.6826	45.85813
475.8463	44.50811
476.0099	43.3333
476.1735	42.1759
476.3371	44.86357
476.5007	46.31242
476.6643	43.52594
476.8279	41.47826
476.9915	43.18494
477.1551	41.329
477.3187	43.20445
477.4823	46.65046
477.6458	47.11233
477.8094	44.53826
477.9729	41.16605
478.1365	43.13044
478.3	47.87544
478.4636	48.34763
478.6271	44.24275
478.7906	42.33416
478.9541	41.37848
479.1176	41.35862
479.2812	44.19199
479.4447	48.08813
479.6082	47.84044
479.7716	48.18643
479.9351	46.48434
480.0986	42.58687
480.2621	43.47123
480.4255	45.37764
480.589	42.73427
480.7524	39.12987
480.9159	42.75384
481.0793	43.23692
481.2428	45.67165
481.4062	42.44395
481.5696	46.92757
481.733	42.41222
481.8964	39.77566
482.0598	40.32294
482.2232	42.69484
482.3866	45.41788
482.55	41.4039
482.7134	44.47312
482.8768	49.19795
483.0401	44.13752
483.2035	46.03088
483.3668	44.88977
483.5302	46.82895
483.6935	44.35555
483.8568	45.89466
484.0202	43.62084
484.1835	40.40713
484.3468	39.4856
484.5101	37.68586
484.6734	45.35962
484.8367	43.38373
485	41.82183
485.1633	41.08252
485.3266	43.09525
485.4899	43.126
485.6531	42.42206
485.8164	40.85695
485.9796	37.34681
486.1429	37.70279
486.3061	36.42249
486.4694	35.84583
486.6326	39.46133
486.7958	48.11616
486.959	40.64721
487.1223	42.3072
487.2855	44.88363
487.4486	39.81556
487.6118	42.56948
487.775	44.00688
487.9382	45.8505
488.1014	46.60189
488.2646	43.99736
488.4277	46.38377
488.5909	45.42263
488.754	41.67809
488.9171	46.20359
489.0803	46.10596
489.2434	40.55869
489.4066	44.51917
489.5697	49.63029
489.7328	51.90291
489.8959	47.07371
490.059	41.22446
490.2221	46.01091
490.3852	44.1037
490.5482	47.24831
490.7113	47.61237
490.8744	40.4819
491.0374	44.74975
491.2005	43.5784
491.3636	42.69342
491.5266	45.93418
491.6896	47.10847
491.8527	44.72539
492.0157	38.05162
492.1787	41.37984
492.3417	40.96934
492.5047	41.11763
492.6677	48.90329
492.8307	44.44207
492.9937	43.72765
493.1567	48.58067
493.3196	45.51891
493.4826	46.1924
493.6456	45.22844
493.8085	44.88898
493.9715	50.09227
494.1344	45.562
494.2974	46.13785
494.4603	48.0568
494.6232	48.45085
494.7861	51.02432
494.949	48.9866
495.1119	49.15968
495.2748	46.62842
495.4377	48.64031
495.6006	43.97004
495.7635	44.51331
495.9264	45.85767
496.0892	42.65678
496.2521	48.93928
496.4149	47.47473
496.5778	46.7492
496.7407	43.69132
496.9035	48.01712
497.0663	50.3119
497.2291	47.68735
497.3919	44.46194
497.5547	47.48207
497.7176	44.37646
497.8804	50.47477
498.0432	46.945
498.2059	48.08612
498.3687	41.98109
498.5315	46.07999
498.6942	45.30209
498.857	53.93993
499.0198	50.91175
499.1825	51.8568
499.3452	47.78444
499.508	44.79177
499.6707	42.7864
499.8334	42.15504
499.9962	48.80242
500.1589	45.7225
500.3216	44.39305
500.4843	46.84352
500.6469	42.37405
500.8096	51.79381
500.9723	45.16198
501.135	43.78289
501.2976	44.0111
501.4603	43.3462
501.623	51.52796
501.7856	43.73206
501.9482	45.52832
502.1109	44.91042
502.2735	44.80276
502.4361	47.91761
502.5987	47.55577
502.7614	45.45155
502.924	45.97716
503.0865	52.81952
503.2491	55.97686
503.4117	47.53354
503.5743	45.22741
503.7368	43.53478
503.8994	44.93822
504.062	45.40434
504.2245	42.89905
504.3871	45.83497
504.5496	50.23835
504.7121	49.41122
504.8746	55.55595
505.0372	46.25215
505.1997	47.48936
505.3622	47.3642
505.5247	51.60006
505.6872	50.04282
505.8497	52.90273
506.0121	46.01994
506.1746	50.35561
506.3371	49.26161
506.4995	52.93248
506.662	53.05774
506.8244	49.90614
506.9869	51.91136
507.1493	50.20214
507.3117	49.3234
507.4742	51.18972
507.6366	51.29264
507.799	45.9971
507.9614	48.43648
508.1238	44.34343
508.2862	47.22109
508.4485	50.54056
508.6109	50.06618
508.7733	50.76688
508.9357	50.75871
509.098	54.80253
509.2604	54.65257
509.4227	51.9768
509.5851	53.45457
509.7474	53.90945
509.9097	52.3557
510.072	52.58798
510.2343	48.92238
510.3966	52.32001
510.5589	52.58041
510.7212	54.73779
510.8835	55.10046
511.0458	54.31164
511.2081	54.76454
511.3703	58.59803
511.5326	54.42004
511.6949	54.7271
511.8571	57.14574
512.0193	56.48021
512.1816	54.95555
512.3438	55.84441
512.506	55.42419
512.6682	50.07713
512.8304	51.10133
512.9926	52.27809
513.1548	53.40098
513.317	52.47923
513.4792	52.8226
513.6414	52.37438
513.8035	50.57993
513.9657	53.40706
514.1279	52.99334
514.29	53.89587
514.4521	59.22871
514.6143	51.58786
514.7764	55.38397
514.9385	56.47473
515.1006	61.53754
515.2628	60.84413
515.4249	52.69197
515.587	53.66745
515.7491	57.83763
515.9111	61.21867
516.0732	57.29399
516.2353	58.98151
516.3973	56.98533
516.5594	55.81124
516.7214	50.75755
516.8835	51.37818
517.0455	48.66615
517.2076	52.68235
517.3696	54.19935
517.5316	57.84455
517.6937	59.37
517.8557	59.81467
518.0176	61.96037
518.1796	56.03936
518.3416	50.15324
518.5036	50.70282
518.6656	56.25671
518.8275	63.69537
518.9895	64.91448
519.1514	61.98571
519.3134	58.06559
519.4753	57.93509
519.6373	62.63703
519.7992	61.64414
519.9611	62.10067
520.123	60.21558
520.2849	59.03484
520.4468	63.74322
520.6087	58.78138
520.7706	58.06487
520.9325	64.26961
521.0944	62.39506
521.2562	66.38838
521.4181	63.91764
521.58	61.42006
521.7418	61.52959
521.9036	67.78841
522.0655	68.4061
522.2273	64.30943
522.3891	65.12025
522.551	65.4607
522.7128	65.2354
522.8746	63.55745
523.0363	68.044
523.1981	66.75034
523.3599	63.00785
523.5217	67.45664
523.6835	68.7658
523.8452	70.31878
524.007	70.40447
524.1687	70.77296
524.3304	67.32721
524.4922	75.81028
524.6539	70.77384
524.8157	71.88815
524.9774	68.42825
525.1391	69.25911
525.3008	71.95535
525.4625	76.14938
525.6241	73.02717
525.7858	75.35462
525.9475	75.77359
526.1092	71.30833
526.2709	71.42255
526.4325	72.79565
526.5942	68.4144
526.7558	67.33964
526.9174	67.60254
527.079	67.04472
527.2407	68.55182
527.4023	70.22144
527.5639	71.32075
527.7255	70.11563
527.8871	78.71322
528.0487	81.02891
528.2103	81.76894
528.3718	85.57787
528.5334	79.05095
528.695	83.78043
528.8565	83.65807
529.0181	84.83936
529.1796	80.55837
529.3412	80.34092
529.5027	76.46656
529.6642	83.17637
529.8257	87.37284
529.9872	83.75971
530.1487	80.51785
530.3102	80.93882
530.4717	83.52259
530.6332	77.23627
530.7947	81.95211
530.9562	77.78341
531.1176	79.75388
531.2791	83.11739
531.4405	84.67257
531.6019	83.53809
531.7634	86.51781
531.9248	86.05821
532.0862	91.71122
532.2477	84.13983
532.4091	78.97545
532.5704	79.64322
532.7319	78.15439
532.8932	82.91568
533.0546	78.41103
533.216	84.88081
533.3774	84.04082
533.5388	85.7541
533.7001	91.03815
533.8615	82.09605
534.0228	80.98037
534.1841	79.35744
534.3455	87.42445
534.5068	84.84557
534.6681	81.4917
534.8293	79.84213
534.9907	82.46423
535.152	81.70879
535.3132	89.8473
535.4745	86.13776
535.6358	87.63279
535.7971	90.10654
535.9583	88.44994
536.1196	82.66388
536.2808	76.16429
536.4421	83.48507
536.6033	86.57579
536.7645	85.46947
536.9258	79.20328
537.087	79.97255
537.2482	83.55579
537.4094	86.21076
537.5706	81.62147
537.7318	82.21164
537.8929	83.14074
538.0541	85.46002
538.2153	86.94807
538.3764	81.87058
538.5376	89.64417
538.6987	85.08508
538.8599	83.83521
539.021	83.07841
539.1821	85.13783
539.3432	79.64538
539.5043	84.03966
539.6655	83.71846
539.8265	80.10874
539.9876	82.91592
540.1487	87.13712
540.3098	84.02191
540.4708	80.87038
540.6319	77.14241
540.793	78.29688
540.954	74.67157
541.1151	84.8762
541.2761	81.86369
541.4371	85.32529
541.5981	79.89241
541.7592	82.84979
541.9202	86.46545
542.0812	84.52304
542.2422	78.69098
542.4031	77.96925
542.5641	84.65653
542.7251	84.32156
542.886	83.81947
543.0471	82.21088
543.208	83.98063
543.369	78.05244
543.5298	81.38538
543.6908	81.28889
543.8517	84.87798
544.0126	88.02843
544.1736	84.77348
544.3345	83.87344
544.4954	77.30908
544.6563	79.8917
544.8171	82.71436
544.978	83.80239
545.1389	85.44739
545.2997	85.82144
545.4606	77.48942
545.6215	79.23779
545.7823	79.52456
545.9432	80.76318
546.104	80.92529
546.2648	84.61855
546.4256	82.12337
546.5864	81.00938
546.7473	83.25603
546.908	86.10646
547.0688	86.51964
547.2296	82.79013
547.3904	82.45123
547.5511	78.34162
547.7119	82.68174
547.8727	82.32184
548.0334	81.83745
548.1942	85.19084
548.3549	83.3284
548.5156	84.19762
548.6763	85.06821
548.837	91.22332
548.9977	86.11391
549.1584	83.78716
549.3192	87.49487
549.4798	85.7337
549.6405	87.25775
549.8011	83.60744
549.9619	85.33401
550.1225	80.10364
550.2831	78.19831
550.4438	83.3491
550.6044	85.09048
550.765	87.02443
550.9257	90.38361
551.0863	83.43579
551.2469	79.62222
551.4075	77.81438
551.5681	82.95502
551.7287	84.4842
551.8893	88.12621
552.0498	83.32159
552.2104	82.89957
552.371	85.77077
552.5315	85.29564
552.6921	77.8884
552.8526	82.24444
553.0131	86.40154
553.1736	84.18825
553.3342	83.37051
553.4947	86.0612
553.6552	84.12045
553.8157	85.34457
553.9762	86.14522
554.1367	88.50896
554.2971	87.59085
554.4576	82.80023
554.618	80.67616
554.7785	81.71142
554.939	82.33518
555.0994	84.18264
555.2598	90.46294
555.4203	84.52256
555.5807	81.42052
555.7411	83.69055
555.9015	90.75007
556.0619	83.54857
556.2223	85.52401
556.3827	82.09454
556.5431	80.10355
556.7034	83.32993
556.8638	78.57502
557.0242	84.99641
557.1845	80.16387
557.3448	79.53109
557.5052	80.38539
557.6655	80.06541
557.8259	78.44962
557.9861	77.35454
558.1465	79.50836
558.3068	77.76027
558.467	79.3215
558.6274	84.71937
558.7877	78.87119
558.9479	73.54984
559.1082	73.75918
559.2684	74.04271
559.4287	76.72809
559.5889	74.33952
559.7491	80.14585
559.9094	79.45167
560.0696	78.83871
560.2299	77.77161
560.3901	78.47709
560.5502	81.04873
560.7104	80.29138
560.8707	79.22722
561.0308	89.1401
561.191	80.65032
561.3511	71.21158
561.5114	72.73706
561.6714	76.41034
561.8316	82.36845
561.9918	78.22784
562.1519	77.97734
562.312	77.17607
562.4722	75.6544
562.6323	77.1412
562.7924	78.80436
562.9525	78.90034
563.1125	82.3336
563.2726	78.93778
563.4327	80.23921
563.5928	74.4062
563.7528	71.59973
563.9129	79.3311
564.0729	83.0303
564.233	75.63583
564.393	75.2451
564.553	73.42397
564.7131	76.80032
564.873	71.56848
565.0331	74.69247
565.1931	71.33546
565.353	73.29053
565.5131	73.60049
565.673	75.24511
565.833	71.65274
565.9929	68.38605
566.1529	59.55785
566.3129	64.12817
566.4728	68.59864
566.6328	70.15037
566.7927	62.5964
566.9526	68.1004
567.1125	73.89593
567.2724	75.68565
567.4323	72.74787
567.5922	72.26627
567.7521	72.40697
567.9119	69.98957
568.0718	68.82345
568.2317	65.52525
568.3915	75.11486
568.5514	64.70255
568.7112	63.27381
568.871	65.54784
569.0309	65.8931
569.1907	67.70186
569.3505	72.54436
569.5103	71.52879
569.6701	62.1183
569.8299	60.95021
569.9897	64.57498
570.1495	71.58712
570.3092	64.79766
570.469	65.43431
570.6287	63.49773
570.7885	69.58261
570.9482	69.33969
571.108	64.61682
571.2677	68.12307
571.4274	66.30465
571.5871	63.73577
571.7468	70.25584
571.9066	72.16534
572.0662	63.10043
572.2259	65.16188
572.3856	66.31821
572.5452	66.36073
572.7049	66.50676
572.8646	62.44674
573.0242	60.814
573.1838	57.31006
573.3435	67.14568
573.5031	65.0537
573.6627	61.39552
573.8223	69.65306
573.9819	68.23209
574.1415	67.584
574.3011	63.84148
574.4607	65.19099
574.6203	60.60981
574.7798	66.65636
574.9394	64.54706
575.099	65.03017
575.2585	68.33221
575.418	61.37115
575.5776	62.35002
575.7371	54.15674
575.8966	63.01751
576.0562	61.58235
576.2156	62.24478
576.3751	68.48193
576.5346	66.53194
576.6941	62.43464
576.8536	62.58948
577.0131	64.56661
577.1725	63.06557
577.332	54.79124
577.4914	58.75398
577.6508	62.25831
577.8103	59.44571
577.9697	65.3202
578.1291	62.92595
578.2885	59.28411
578.4479	58.31047
578.6073	59.73466
578.7667	66.44312
578.9261	63.99591
579.0854	57.68036
579.2448	58.8855
579.4042	59.93071
579.5635	62.27626
579.7229	62.2238
579.8822	60.47794
580.0416	62.04813
580.2009	61.38348
580.3602	56.90323
580.5195	57.52249
580.6788	60.3628
580.8381	56.5163
580.9974	58.34305
581.1566	61.74059
581.3159	58.15413
581.4752	56.86489
581.6345	55.35991
581.7937	60.54145
581.9529	57.47932
582.1122	59.93261
582.2714	63.29311
582.4306	62.73314
582.5898	58.32598
582.749	54.95545
582.9082	61.21561
583.0674	56.0712
583.2266	58.08175
583.3857	56.09793
583.5449	56.87174
583.7041	63.22787
583.8633	59.12263
584.0224	55.87057
584.1815	54.19749
584.3407	53.05965
584.4998	55.03384
584.6589	57.79842
584.818	53.39972
584.9771	54.74141
585.1362	53.87138
585.2953	59.17677
585.4544	59.71218
585.6135	53.89148
585.7725	57.34713
585.9316	56.03722
586.0906	58.6674
586.2497	59.17412
586.4087	59.01972
586.5677	53.31477
586.7267	52.93896
586.8858	55.71764
587.0448	49.94387
587.2038	53.33595
587.3628	58.2411
587.5218	58.02552
587.6807	54.01577
587.8397	55.63532
587.9987	57.10658
588.1577	57.23516
588.3166	54.82159
588.4755	52.54293
588.6345	51.64993
588.7934	52.47657
588.9523	51.27871
589.1112	47.66952
589.2701	51.10456
589.429	54.9788
589.5879	54.51062
589.7468	49.66351
589.9056	56.07095
590.0645	50.28322
590.2234	49.66324
590.3822	51.4115
590.5411	48.74543
590.6999	49.64098
590.8588	50.75572
591.0176	49.258
591.1764	47.60167
591.3352	55.67115
591.494	52.66605
591.6528	46.66962
591.8116	50.03625
591.9703	46.13858
592.1291	49.08863
592.2878	49.17819
592.4467	50.55101
592.6053	52.61289
592.7641	52.45735
592.9229	49.12421
593.0816	50.58685
593.2403	54.92619
593.399	45.33517
593.5577	50.03023
593.7164	52.94657
593.8751	54.27911
594.0338	55.37643
594.1924	51.49964
594.3511	53.27955
594.5098	54.70035
594.6684	49.47989
594.8271	47.01653
594.9857	47.08631
595.1443	49.49132
595.303	51.43436
595.4615	52.35091
595.6202	53.81521
595.7787	54.26473
595.9374	47.90599
596.0959	47.77472
596.2545	54.79241
596.4131	54.93329
596.5717	54.20766
596.7302	45.4079
596.8887	50.07762
597.0473	47.98385
597.2058	56.53567
597.3644	49.71515
597.5229	48.11978
597.6814	52.33582
597.8399	51.24516
597.9984	51.66277
598.1569	49.7683
598.3154	54.4388
598.4738	49.93436
598.6323	48.42977
598.7908	46.10322
598.9492	54.23274
599.1076	48.55027
599.2661	53.17864
599.4245	54.78193
599.5829	53.819
599.7413	48.52564
599.8997	47.98903
600.0581	49.88974
600.2165	49.50964
600.3749	46.93133
600.5333	50.91558
600.6917	50.64986
600.85	49.19595
601.0084	48.66688
601.1667	51.34488
601.325	47.21079
601.4833	47.60416
601.6417	48.89708
601.8	53.2807
601.9583	49.6239
602.1166	49.97757
602.2749	52.94354
602.4332	53.84188
602.5914	51.04563
602.7498	50.98392
602.908	53.25115
603.0662	46.80781
603.2245	48.30241
603.3828	50.48046
603.541	47.54006
603.6992	55.07751
603.8574	50.94189
604.0156	50.78558
604.1738	50.0387
604.332	50.17167
604.4902	48.26432
604.6484	49.16939
604.8065	46.92184
604.9647	51.02267
605.1229	49.47112
605.281	47.34797
605.4391	48.73237
605.5973	48.34937
605.7554	52.54043
605.9135	47.72665
606.0717	47.74334
606.2297	48.92813
606.3878	49.89486
606.5459	46.53962
606.704	45.62748
606.8621	48.28288
607.0201	49.20966
607.1782	48.66227
607.3362	47.98983
607.4943	42.1534
607.6523	47.77157
607.8104	47.06887
607.9684	49.40736
608.1264	48.88638
608.2844	51.86995
608.4424	49.83576
608.6003	48.50256
608.7584	43.15727
608.9163	44.53101
609.0743	50.13701
609.2322	49.01935
609.3902	46.22548
609.5482	50.80235
609.7061	52.87914
609.864	48.54615
610.0219	46.73626
610.1798	43.56881
610.3377	42.54113
610.4956	49.00848
610.6535	51.19086
610.8114	47.6134
610.9693	43.59077
611.1271	47.15779
611.285	49.76832
611.4429	49.08153
611.6007	46.48304
611.7585	46.03604
611.9164	48.97954
612.0742	44.97532
612.232	45.17628
612.3898	48.91951
612.5476	49.06792
612.7054	46.37289
612.8632	43.38376
613.0209	47.81839
613.1787	46.58381
613.3365	43.37032
613.4942	46.3341
613.652	46.11452
613.8097	46.01002
613.9674	41.38962
614.1252	42.81628
614.2829	41.15295
614.4406	43.99677
614.5983	45.51308
614.756	44.8065
614.9136	46.09347
615.0714	48.41124
615.229	44.22246
615.3867	42.33718
615.5443	41.79072
615.702	43.73314
615.8596	41.95841
616.0172	43.2565
616.1748	44.24387
616.3325	42.61406
616.4901	43.212
616.6476	43.74736
616.8052	50.96771
616.9628	46.5528
617.1204	43.08917
617.278	41.86958
617.4355	41.94221
617.5931	42.95929
617.7506	44.81259
617.9081	47.46831
618.0657	43.20036
618.2232	43.11597
618.3807	42.98543
618.5382	44.19896
618.6957	44.01668
618.8532	45.79132
619.0107	40.35206
619.1682	45.49354
619.3256	41.61749
619.4831	40.68982
619.6406	45.66127
619.798	41.833
619.9554	38.31314
620.1129	43.85743
620.2703	46.49673
620.4277	44.21453
620.5851	43.64301
620.7425	41.40374
620.8998	42.18863
621.0573	37.85797
621.2146	38.45442
621.372	40.40279
621.5294	45.35257
621.6867	36.69592
621.8441	40.41335
622.0013	38.44494
622.1587	40.4237
622.316	42.20914
622.4733	38.22687
622.6306	39.15005
622.7879	39.04576
622.9452	43.98469
623.1025	45.45343
623.2598	46.63686
623.4171	38.90939
623.5743	40.94811
623.7316	44.27462
623.8888	41.17768
624.046	37.71744
624.2032	37.81148
624.3605	38.04792
624.5176	38.61675
624.6749	40.57325
624.8321	44.89226
624.9893	42.79053
625.1464	35.84587
625.3036	39.14589
625.4608	39.30395
625.6179	41.263
625.7751	45.14694
625.9322	39.87501
626.0894	40.57442
626.2465	39.2857
626.4036	37.88657
626.5607	44.36869
626.7178	41.75787
626.8749	40.33382
627.032	40.78875
627.189	41.03746
627.3461	36.3084
627.5032	38.78633
627.6602	37.59444
627.8173	40.626
627.9743	43.52758
628.1313	39.13198
628.2884	37.85749
628.4454	41.89217
628.6024	42.5574
628.7594	39.49428
628.9164	36.66803
629.0734	40.44355
629.2303	41.12492
629.3873	41.25926
629.5443	41.01818
629.7012	38.19665
629.8582	41.17627
630.0151	42.9128
630.172	38.14956
630.3289	45.48047
630.4858	42.39558
630.6428	46.98486
630.7996	40.27288
630.9565	42.84624
631.1134	40.29338
631.2703	43.09829
631.4272	38.61058
631.584	38.56422
631.7408	42.3264
631.8977	40.8427
632.0546	38.52224
632.2114	40.94371
632.3682	39.06057
632.525	38.72635
632.6818	40.8762
632.8386	36.94776
632.9954	38.78283
633.1522	37.31919
633.3089	36.4709
633.4657	33.16888
633.6224	40.88779
633.7792	35.73999
633.9359	34.64874
634.0927	30.53929
634.2494	39.41849
634.4061	41.77833
634.5628	35.75703
634.7195	37.64583
634.8762	39.65101
635.0329	41.02709
635.1895	39.05475
635.3462	41.57084
635.5029	39.50723
635.6595	43.56839
635.8162	41.30445
635.9728	40.18767
636.1295	39.28504
636.2861	38.16624
636.4427	35.875
636.5992	38.09757
636.7559	34.00408
636.9124	35.19741
637.069	38.5368
637.2256	43.02031
637.3821	40.7099
637.5387	37.20186
637.6953	36.43966
637.8518	36.1403
638.0084	38.64095
638.1649	35.98017
638.3214	34.29597
638.4779	37.22448
638.6344	40.49842
638.7909	41.74165
638.9474	39.0035
639.1038	36.14751
639.2603	35.66044
639.4167	41.16288
639.5732	41.82666
639.7297	42.81223
639.8861	43.94881
640.0425	38.94046
640.199	33.73066
640.3553	35.85011
640.5118	36.42409
640.6682	35.86042
640.8245	38.01606
640.981	35.79636
641.1373	40.72266
641.2936	34.33589
641.45	35.22223
641.6064	35.62284
641.7627	42.61205
641.9191	40.39648
642.0754	39.26614
642.2317	40.81605
642.388	36.39678
642.5443	34.73519
642.7006	32.1228
642.8569	36.2557
643.0131	37.47191
643.1694	36.99593
643.3257	44.87918
643.4819	40.80592
643.6382	34.91359
643.7944	39.93233
643.9506	36.20828
644.1069	33.10915
644.2631	38.15232
644.4193	35.15072
644.5754	40.43218
644.7316	39.00626
644.8878	33.11124
645.044	32.46575
645.2002	35.98775
645.3563	36.44259
645.5125	41.57318
645.6686	39.76925
645.8248	33.74578
645.9809	37.36488
646.137	34.1949
646.2931	33.84267
646.4492	32.65919
646.6053	35.53618
646.7614	32.3939
646.9174	34.13135
647.0735	33.50036
647.2296	33.35228
647.3856	30.9333
647.5417	34.78469
647.6977	36.12767
647.8537	35.42217
648.0098	34.23138
648.1658	34.99096
648.3218	30.56544
648.4777	33.25549
648.6337	38.85675
648.7897	37.65329
648.9457	36.57735
649.1016	35.55587
649.2576	34.92558
649.4135	37.99707
649.5695	38.11198
649.7254	30.54095
649.8813	29.15451
650.0372	33.29203
650.1932	31.68217
650.3491	34.50224
650.5049	36.66641
650.6608	35.87653
650.8167	34.39621
650.9725	34.48873
651.1284	36.35334
651.2842	35.74922
651.4401	27.71889
651.5959	33.40977
651.7518	27.87508
651.9076	29.28985
652.0634	30.94097
652.2192	34.24932
652.3749	34.66352
652.5308	36.13498
652.6865	37.40686
652.8423	33.8192
652.998	30.49129
653.1538	30.9742
653.3096	35.50008
653.4653	35.28711
653.621	34.9996
653.7767	34.41537
653.9324	37.48454
654.0881	32.67251
654.2438	34.77171
654.3995	29.2618
654.5552	33.46775
654.7109	38.6144
654.8665	35.16778
655.0222	32.42675
655.1778	30.61269
655.3334	33.97503
655.4891	29.0359
655.6447	34.11063
655.8003	33.81718
655.9559	31.89616
656.1115	34.06195
656.2671	33.06355
656.4227	31.003
656.5782	30.3544
656.7338	32.73549
656.8893	29.84317
657.0449	34.29856
657.2004	35.61811
657.356	31.16044
657.5115	30.9001
657.667	32.0195
657.8225	31.28794
657.978	31.09435
658.1335	30.50213
658.289	33.676
658.4445	33.034
658.5999	32.22511
658.7554	29.88088
658.9108	33.65899
659.0663	28.87119
659.2217	30.75188
659.3771	29.86047
659.5325	33.17724
659.6879	32.99102
659.8433	30.86845
659.9987	29.3493
660.1541	32.72785
660.3095	33.22583
660.4648	31.83007
660.6202	30.51719
660.7756	30.42697
660.9309	33.27204
661.0862	30.3419
661.2416	29.37097
661.3969	33.79236
661.5522	33.44942
661.7075	29.76442
661.8628	28.03341
662.0181	30.61844
662.1733	30.20104
662.3286	33.63363
662.4839	31.53219
662.6391	32.54354
662.7944	32.25113
662.9496	33.86489
663.1048	29.86813
663.26	28.90492
663.4152	30.83555
663.5704	32.22898
663.7256	35.68311
663.8808	32.52642
664.036	34.20633
664.1912	33.23524
664.3463	32.38654
664.5015	31.7743
664.6566	31.48122
664.8118	30.61897
664.9669	28.39061
665.122	29.41853
665.2771	33.28844
665.4322	29.94556
665.5873	31.59064
665.7424	31.38112
665.8975	24.35748
666.0526	30.95606
666.2076	36.51545
666.3627	30.74802
666.5177	28.71832
666.6727	27.65092
666.8278	25.90092
666.9828	35.09686
667.1378	29.17646
667.2928	25.19568
667.4478	30.81096
667.6028	34.42036
667.7578	27.18043
667.9127	29.59664
668.0677	26.8855
668.2226	30.33501
668.3776	32.08509
668.5325	25.91327
668.6874	28.9564
668.8423	27.11367
668.9973	25.5276
669.1522	27.57505
669.3071	31.948
669.4619	30.0453
669.6168	26.17614
669.7717	28.2917
669.9265	25.81169
670.0814	27.76422
670.2362	28.67597
670.3911	27.53283
670.5459	31.12498
670.7007	24.35103
670.8555	30.20492
671.0103	31.53128
671.1651	29.46235
671.3199	28.98352
671.4747	30.24723
671.6295	28.09514
671.7842	26.49865
671.939	27.42798
672.0937	33.46216
672.2484	25.35861
672.4031	29.34041
672.5579	28.27656
672.7126	32.56961
672.8673	33.87374
673.022	29.50936
673.1767	29.14384
673.3314	32.9446
673.486	28.4818
673.6407	26.19287
673.7953	27.01014
673.95	27.99311
674.1046	30.73615
674.2592	27.59964
674.4138	24.75633
674.5684	29.55779
674.723	27.60824
674.8776	26.94758
675.0322	30.19879
675.1868	32.0023
675.3414	29.96056
675.4959	28.76855
675.6505	31.49479
675.805	29.78446
675.9595	29.18845
676.1141	28.08501
676.2686	28.73129
676.4231	26.62148
676.5776	28.27337
676.7321	28.06606
676.8866	27.32961
677.041	26.94335
677.1955	24.89299
677.35	28.78658
677.5044	29.98593
677.6589	28.34192
677.8133	25.07645
677.9677	26.23356
678.1221	28.0019
678.2766	29.85313
678.4309	27.81794
678.5853	28.8287
678.7397	28.51314
678.8941	25.05293
679.0485	27.18258
679.2028	27.09296
679.3571	27.58738
679.5115	25.01143
679.6658	30.9789
679.8201	32.32524
679.9744	27.87997
680.1288	30.45887
680.2831	23.55232
680.4373	25.05432
680.5916	25.66782
680.7459	29.3756
680.9001	28.25364
681.0544	28.63546
681.2087	23.94938
681.3629	27.74582
681.5171	24.88101
681.6713	28.5782
681.8256	30.93025
681.9797	27.91627
682.134	26.86852
682.2881	29.09138
682.4423	27.9231
682.5965	28.63254
682.7507	22.32352
682.9048	29.66773
683.059	24.3057
683.2131	24.30692
683.3672	27.11499
683.5213	25.54629
683.6754	30.64481
683.8295	25.02295
683.9836	27.18499
684.1377	29.93899
684.2918	28.22385
684.4459	24.58667
684.5999	27.90333
684.754	24.70095
684.908	31.2874
685.062	30.05863
685.2161	28.71668
685.3701	27.48821
685.5241	31.16256
685.6781	25.94023
685.8321	29.42121
685.9861	30.67949
686.14	28.79458
686.294	28.27533
686.4479	24.35076
686.6019	28.03451
686.7559	24.09558
686.9098	29.11729
687.0637	28.70926
687.2176	22.88772
687.3715	27.00545
687.5254	26.99925
687.6793	28.51924
687.8332	21.65469
687.9871	28.2731
688.1409	27.86954
688.2947	27.49637
688.4486	27.19519
688.6024	28.35273
688.7563	27.39037
688.9101	28.41354
689.0639	29.39928
689.2177	30.74282
689.3715	27.93173
689.5253	27.29076
689.6791	30.46256
689.8328	21.52688
689.9866	24.08659
690.1403	26.5469
690.2941	27.61988
690.4478	26.64348
690.6015	29.61268
690.7552	26.32108
690.9089	29.03912
691.0626	26.32528
691.2164	35.45111
691.37	27.97399
691.5237	26.96173
691.6774	31.3831
691.831	31.058
691.9847	30.50738
692.1383	28.67305
692.2919	26.27788
692.4456	25.28419
692.5992	24.96997
692.7527	28.63799
692.9064	34.15525
693.0599	25.12174
693.2136	26.56432
693.3671	28.0188
693.5207	31.25676
693.6742	28.90489
693.8278	26.57012
693.9813	30.23394
694.1348	30.54802
694.2883	28.35951
694.4418	29.25998
694.5953	30.32983
694.7488	29.52452
694.9023	24.55699
695.0558	28.13651
695.2093	29.50891
695.3627	22.61946
695.5162	30.72495
695.6696	27.72947
695.8231	27.31475
695.9764	29.01673
696.1299	28.43971
696.2833	28.71824
696.4367	25.72658
696.5901	26.62062
696.7435	30.42409
696.8968	32.05619
697.0502	32.16394
697.2036	29.81435
697.3569	27.20611
697.5102	34.83651
697.6635	30.93555
697.8168	31.40208
697.9702	31.37747
698.1235	29.25873
698.2768	30.59899
698.4301	31.13599
698.5833	32.21847
698.7366	32.41223
698.8898	30.11432
699.0431	31.42966
699.1964	30.36001
699.3495	32.40746
699.5028	39.74183
699.656	29.23157
699.8092	28.3278
699.9624	29.04742
700.1156	31.25446
700.2688	32.77435
700.4219	34.46455
700.5751	34.73269
700.7283	33.51453
700.8814	29.75387
701.0345	30.9485
701.1877	33.60505
701.3408	34.17596
701.4939	34.11792
701.647	33.39061
701.8001	33.55828
701.9532	33.23208
702.1063	35.51739
702.2593	32.35583
702.4124	38.13553
702.5654	35.18804
702.7184	34.44987
702.8715	34.90879
703.0245	34.78817
703.1776	37.79329
703.3305	38.433
703.4835	36.06217
703.6365	34.26001
703.7895	36.40218
703.9424	31.83525
704.0954	33.94004
704.2484	35.72269
704.4013	39.58407
704.5543	37.26794
704.7072	37.14902
704.8601	37.12614
705.013	38.04013
705.1659	40.11847
705.3188	36.21466
705.4717	40.93848
705.6246	40.06322
705.7774	39.90245
705.9303	42.47135
706.0831	37.55671
706.236	36.05424
706.3888	39.06984
706.5416	40.82378
706.6944	41.79981
706.8472	36.4538
707	37.04544
707.1528	39.16924
707.3056	41.90081
707.4583	43.66935
707.6111	45.90992
707.7639	42.68954
707.9166	44.05431
708.0693	42.84764
708.222	42.74382
708.3748	42.45886
708.5275	38.55693
708.6802	38.9234
708.8328	43.57278
708.9855	44.1616
709.1382	46.80995
709.2909	41.2576
709.4435	41.82739
709.5962	41.23565
709.7488	38.3956
709.9014	41.10297
710.054	40.44508
710.2067	44.45887
710.3593	41.76169
710.5118	45.14971
710.6644	38.70778
710.817	42.04628
710.9695	46.09597
711.1221	43.16896
711.2747	45.54333
711.4272	45.5834
711.5797	41.49874
711.7322	44.07978
711.8848	40.27622
712.0373	42.06204
712.1898	39.85022
712.3422	43.69139
712.4948	47.01162
712.6472	48.61767
712.7996	47.6308
712.9521	43.49587
713.1046	39.00792
713.257	46.27732
713.4094	51.49235
713.5618	51.00491
713.7142	47.89479
713.8666	48.07827
714.019	42.89086
714.1714	48.22404
714.3237	46.58188
714.4761	52.40436
714.6285	53.90973
714.7808	48.90993
714.9331	47.20092
715.0854	46.23642
715.2378	43.66129
715.3901	46.74977
715.5424	49.507
715.6947	51.6215
715.8469	54.23544
715.9992	48.1445
716.1515	47.1824
716.3037	40.62211
716.456	40.73374
716.6082	48.62704
716.7604	45.15828
716.9127	43.31566
717.0649	41.89629
717.2171	46.91326
717.3693	41.89214
717.5214	44.67684
717.6736	39.92673
717.8258	39.90357
717.978	42.81842
718.1301	47.44962
718.2822	44.19155
718.4344	42.97853
718.5865	43.3303
718.7386	40.90226
718.8907	42.63158
719.0428	45.71025
719.1949	47.23766
719.3469	44.24933
719.499	45.11311
719.6511	46.05022
719.8031	45.52255
719.9551	43.30592
720.1072	45.43972
720.2592	46.47735
720.4112	41.63724
720.5632	43.26862
720.7152	50.14651
720.8672	48.84848
721.0192	49.72351
721.1711	50.21033
721.3231	50.48848
721.475	49.45602
721.627	55.72252
721.7789	52.09693
721.9308	55.77925
722.0828	51.36709
722.2347	58.47078
722.3866	60.31095
722.5385	59.23671
722.6903	51.04194
722.8422	54.87168
722.9941	53.12798
723.1459	57.92769
723.2977	53.24549
723.4496	48.00056
723.6014	55.14425
723.7532	52.57692
723.905	50.70685
724.0568	51.57892
724.2086	56.25666
724.3604	56.44944
724.5121	53.44404
724.6639	56.13461
724.8157	53.78661
724.9674	55.12077
725.1191	53.29769
725.2709	53.52435
725.4226	53.81331
725.5743	56.13231
725.726	56.83981
725.8777	60.97301
726.0294	55.23108
726.181	54.55272
726.3327	56.75616
726.4844	57.44165
726.636	61.34564
726.7877	64.14853
726.9393	65.84075
727.0909	59.70318
727.2425	61.81771
727.3941	56.78994
727.5457	55.86509
727.6973	53.39166
727.8488	49.41432
728.0004	55.91859
728.1519	59.26636
728.3035	64.2189
728.455	68.35515
728.6066	64.44466
728.7581	58.12496
728.9095	57.49842
729.0611	60.9238
729.2126	60.82201
729.364	60.62655
729.5155	62.7669
729.667	63.08288
729.8184	67.87589
729.9698	66.84009
730.1213	66.14236
730.2727	61.88641
730.4241	61.34616
730.5756	64.27623
730.7269	63.75843
730.8784	68.05021
731.0297	68.85045
731.1811	68.80353
731.3325	66.82196
731.4838	74.35396
731.6351	67.95659
731.7865	65.58463
731.9378	66.81179
732.0891	71.43871
732.2404	66.78893
732.3917	70.57069
732.543	73.98315
732.6943	74.12453
732.8456	75.5727
732.9968	76.27397
733.1481	77.61944
733.2993	74.89928
733.4506	77.92389
733.6018	78.62728
733.753	75.71233
733.9042	76.47949
734.0554	83.00274
734.2066	82.17834
734.3578	74.58847
734.509	78.87844
734.6602	80.91091
734.8113	83.99403
734.9624	80.99194
735.1136	84.31686
735.2647	82.76498
735.4158	73.79594
735.5669	79.00762
735.718	75.77133
735.8691	87.96308
736.0201	86.29969
736.1713	84.28947
736.3223	82.40364
736.4733	81.29577
736.6244	79.99353
736.7755	84.22021
736.9265	83.23602
737.0775	79.55286
737.2285	85.73056
737.3795	87.57468
737.5305	88.51832
737.6815	83.14417
737.8324	87.91023
737.9834	87.37826
738.1343	90.33447
738.2853	91.3012
738.4362	82.91118
738.5871	85.60344
738.738	85.47674
738.8889	90.63205
739.0399	88.85403
739.1907	89.53499
739.3416	95.10421
739.4925	94.88135
739.6433	91.99789
739.7942	83.88059
739.945	91.22473
740.0958	92.1482
740.2467	89.12585
740.3975	90.707
740.5483	94.11479
740.6991	94.61255
740.8499	92.51141
741.0007	96.43191
741.1514	89.30534
741.3022	89.04008
741.4529	89.05209
741.6036	92.44542
741.7544	92.87965
741.9051	89.89503
742.0558	93.28982
742.2065	95.98138
742.3572	95.47257
742.5079	95.4066
742.6586	98.63311
742.8093	96.41546
742.9599	101.7976
743.1105	99.86009
743.2612	97.59747
743.4118	96.10502
743.5624	90.27249
743.7131	96.1737
743.8636	97.02805
744.0142	96.13691
744.1648	96.39313
744.3154	99.78865
744.4659	95.98669
744.6165	94.98579
744.767	99.43968
744.9176	99.06719
745.0681	100.2912
745.2186	98.18133
745.3691	104.3438
745.5197	102.5391
745.6702	106.3381
745.8206	94.30379
745.9711	92.18343
746.1215	95.5401
746.272	95.39364
746.4224	97.65225
746.5729	99.34191
746.7233	95.24295
746.8737	98.13689
747.0241	103.2624
747.1745	104.8815
747.3249	99.8615
747.4753	97.67255
747.6257	103.3603
747.776	97.59502
747.9264	99.08123
748.0767	97.68224
748.2271	96.90124
748.3774	104.744
748.5276	98.2423
748.678	96.98328
748.8282	96.42545
748.9786	103.4595
749.1288	102.989
749.2791	92.22224
749.4294	95.87162
749.5796	100.3947
749.7299	102.865
749.8801	98.14272
750.0303	97.75618
750.1805	97.75494
750.3307	100.6637
750.4809	95.46844
750.6311	96.67432
750.7813	103.7456
750.9314	102.0052
751.0816	96.7747
751.2318	96.40057
751.3818	100.5296
751.532	103.0601
751.6821	97.05417
751.8322	96.44924
751.9823	101.5064
752.1324	102.9556
752.2825	101.449
752.4326	97.25178
752.5826	99.3725
752.7327	97.81882
752.8827	94.77213
753.0327	100.326
753.1827	97.29208
753.3328	93.07149
753.4828	98.78785
753.6328	100.3855
753.7828	99.43934
753.9327	102.0127
754.0827	103.8207
754.2327	103.5992
754.3826	101.7333
754.5325	98.08755
754.6825	103.1241
754.8324	94.17014
754.9823	96.30775
755.1322	100.0866
755.2821	96.71992
755.432	97.85519
755.5818	91.69794
755.7318	89.26094
755.8816	92.42745
756.0314	88.17004
756.1813	87.24924
756.3311	92.60249
756.4809	89.12687
756.6307	90.59417
756.7805	95.43874
756.9303	97.5761
757.0801	96.24019
757.2299	94.61196
757.3796	98.07302
757.5294	94.66424
757.6791	94.03668
757.8289	87.37708
757.9786	90.63454
758.1283	93.54565
758.278	93.56953
758.4277	97.50546
758.5773	92.42226
758.7271	91.49216
758.8767	89.93179
759.0264	91.25645
759.176	83.35675
759.3256	76.88875
759.4753	64.6118
759.6249	47.23032
759.7745	38.95431
759.9241	32.51346
760.0737	30.16244
760.2233	31.10922
760.3729	26.83662
760.5224	26.15498
760.6719	22.9385
760.8215	25.32124
760.971	27.38133
761.1205	30.97033
761.2701	34.04823
761.4196	39.99375
761.5691	43.33691
761.7186	54.44669
761.868	63.89944
762.0175	65.45451
762.167	58.25901
762.3164	53.20316
762.4659	45.62682
762.6153	45.23766
762.7647	46.99487
762.9141	41.43315
763.0635	41.91127
763.2129	43.14894
763.3623	40.06199
763.5117	47.60308
763.661	45.87278
763.8104	43.28918
763.9597	44.79837
764.1091	45.59377
764.2584	48.52521
764.4077	50.42303
764.557	50.67001
764.7063	57.11905
764.8556	59.49661
765.0049	58.56516
765.1541	57.05135
765.3034	58.6947
765.4526	58.49416
765.6019	61.24387
765.7511	61.22054
765.9003	68.36827
766.0496	63.63707
766.1987	63.56806
766.348	64.37317
766.4971	65.43376
766.6463	68.84753
766.7955	70.05952
766.9446	74.5107
767.0938	76.40659
767.2429	75.37712
767.392	74.60292
767.5411	79.56139
767.6902	77.89693
767.8394	73.3258
767.9884	74.3293
768.1375	77.38571
768.2866	83.11258
768.4356	73.29289
768.5847	78.34007
768.7337	76.79505
768.8828	71.79839
769.0317	74.07068
769.1808	76.05305
769.3298	72.10283
769.4788	75.79296
769.6277	77.38489
769.7767	82.43804
769.9257	77.1315
770.0746	78.34213
770.2236	81.62487
770.3725	82.11253
770.5214	83.51823
770.6703	84.23158
770.8193	77.97002
770.9681	79.46021
771.1171	76.07064
771.2659	75.99959
771.4148	78.29243
771.5637	74.20905
771.7125	72.00598
771.8613	79.14737
772.0101	84.04286
772.159	80.13268
772.3078	81.33664
772.4566	78.70744
772.6054	85.09863
772.7542	74.03696
772.903	71.60931
773.0517	74.81693
773.2004	75.54829
773.3492	78.7415
773.4979	76.66032
773.6467	73.7436
773.7953	82.48466
773.944	81.50166
774.0928	81.51862
774.2415	75.51374
774.3901	71.32983
774.5388	78.20674
774.6874	75.98252
774.8361	70.70739
774.9847	68.34339
775.1334	73.42622
775.282	77.14374
775.4305	74.87619
775.5792	74.59409
775.7277	74.14539
775.8763	72.36049
776.0249	67.81856
776.1735	76.15036
776.322	74.41798
776.4705	74.57662
776.6191	78.98122
776.7676	67.65712
776.9161	68.93024
777.0646	77.00475
777.2131	76.66074
777.3616	73.60789
777.5101	76.51752
777.6585	76.13953
777.8069	74.28722
777.9554	70.3405
778.1038	75.08363
778.2523	75.03885
778.4007	73.23384
778.5491	71.3786
778.6974	74.3773
778.8459	68.83183
778.9942	70.64485
779.1426	72.82182
779.291	75.00763
779.4393	72.80396
779.5876	71.09717
779.736	69.85785
779.8843	68.52782
780.0326	72.59885
780.1809	77.49349
780.3292	71.95907
780.4775	70.5328
780.6257	63.83891
780.774	70.34557
780.9222	73.04472
781.0704	71.77571
781.2187	68.39631
781.3669	69.10641
781.5151	71.49178
781.6633	64.38741
781.8115	66.20849
781.9597	67.64549
782.1078	69.40525
782.256	72.57701
782.4042	69.69143
782.5523	73.85733
782.7004	76.07132
782.8486	66.07986
782.9967	71.50903
783.1448	71.34657
783.2929	74.94893
783.441	68.0686
783.5891	65.35932
783.7371	70.18292
783.8851	68.97604
784.0332	70.0706
784.1812	69.13052
784.3293	67.69559
784.4773	68.10995
784.6253	68.51644
784.7733	67.98299
784.9213	66.30161
785.0692	73.09246
785.2172	69.93655
785.3652	63.51211
785.5131	71.10299
785.6611	65.82034
785.809	60.83802
785.9569	66.29596
786.1048	67.90488
786.2527	66.26295
786.4006	67.04848
786.5485	63.30529
786.6964	68.06942
786.8442	69.6096
786.9921	70.25976
787.1399	66.14339
787.2877	69.67976
787.4355	65.8816
787.5833	63.92465
787.7311	65.95574
787.8789	64.83685
788.0267	63.13018
788.1745	66.00478
788.3223	68.34074
788.47	65.64985
788.6177	64.08526
788.7654	60.3322
788.9132	59.74679
789.0609	62.69127
789.2086	67.55539
789.3563	61.14737
789.504	60.50431
789.6517	67.33518
789.7993	59.79675
789.947	65.92191
790.0946	65.99617
790.2422	62.34015
790.3898	61.44144
790.5375	63.00596
790.6851	62.66563
790.8326	56.49974
790.9802	58.56844
791.1278	63.59009
791.2754	57.46095
791.423	62.37346
791.5705	57.08678
791.718	57.53767
791.8655	57.25479
792.0131	61.25508
792.1606	59.72271
792.308	61.38327
792.4556	59.34023
792.603	61.51097
792.7505	58.87769
792.8979	55.1101
793.0454	61.00075
793.1928	61.41676
793.3403	58.35253
793.4877	57.17467
793.6351	56.0756
793.7825	61.1011
793.9299	61.18139
794.0772	57.8583
794.2246	60.01485
794.3719	63.1956
794.5193	58.14203
794.6666	54.75212
794.814	59.66644
794.9613	58.19535
795.1086	59.1599
795.2559	57.37669
795.4032	57.36749
795.5505	59.9585
795.6978	63.83912
795.845	58.49833
795.9922	59.7904
796.1395	56.65163
796.2867	55.49115
796.4339	57.36349
796.5811	55.59092
796.7283	55.61814
796.8755	52.66795
797.0227	55.28997
797.1699	58.15702
797.317	57.4492
797.4642	58.35407
797.6113	56.31528
797.7584	56.0183
797.9056	58.17745
798.0527	54.35991
798.1998	59.41498
798.3469	58.79347
798.494	56.31094
798.641	50.59288
798.7881	54.3637
798.9351	55.70934
799.0822	52.69899
799.2292	56.78673
799.3762	59.53796
799.5232	59.14658
799.6702	54.31497
799.8172	51.09534
799.9642	50.49509
800.1111	52.16187
800.2581	53.63843
800.4051	55.73372
800.552	56.0754
800.6989	54.3545
800.8458	46.79866
800.9927	53.36435
801.1396	58.32079
801.2866	50.46278
801.4334	52.76116
801.5803	50.83818
801.7272	51.81034
801.874	50.48985
802.0209	49.70242
802.1677	48.75458
802.3145	49.38331
802.4613	52.75994
802.6081	53.62531
802.7549	50.41482
802.9017	47.71994
803.0485	52.60319
803.1952	51.66027
803.342	54.85474
803.4887	54.031
803.6354	53.98915
803.7822	56.01906
803.9289	54.76212
804.0756	50.78086
804.2223	53.29493
804.369	51.04505
804.5156	48.34031
804.6623	48.97952
804.8089	48.81552
804.9556	56.57698
805.1022	52.32914
805.2488	49.05785
805.3954	49.99099
805.542	47.6786
805.6886	51.99794
805.8352	55.71875
805.9818	52.14449
806.1283	51.97444
806.2749	50.0074
806.4214	49.59821
806.5679	51.13992
806.7145	49.3498
806.861	51.55462
807.0074	48.86275
807.154	49.78669
807.3004	50.8843
807.4469	47.40037
807.5934	50.37284
807.7398	48.17176
807.8862	48.9752
808.0327	43.40872
808.1791	45.6332
808.3255	45.42284
808.4719	50.20026
808.6183	50.10115
808.7647	47.93439
808.9111	49.16064
809.0574	47.0291
809.2037	45.35688
809.3501	45.40195
809.4965	45.99235
809.6428	42.30223
809.7891	38.27604
809.9354	42.83149
810.0817	44.55885
810.2279	44.01697
810.3742	44.8457
810.5204	46.54463
810.6667	42.33038
810.8129	45.64425
810.9592	46.71833
811.1054	40.96166
811.2516	43.20006
811.3978	46.65076
811.5439	48.9467
811.6901	39.99215
811.8363	45.5443
811.9825	44.93806
812.1286	43.36999
812.2748	46.34876
812.4209	39.65855
812.567	38.10936
812.7131	39.38908
812.8592	46.65205
813.0053	36.83829
813.1514	39.02631
813.2974	36.91962
813.4435	36.7808
813.5895	33.76118
813.7356	41.04011
813.8816	36.79916
814.0276	36.38456
814.1736	37.07437
814.3196	37.90347
814.4656	30.55412
814.6116	34.72343
814.7576	36.04154
814.9035	36.24172
815.0494	35.07379
815.1954	34.21673
815.3413	35.39308
815.4872	37.11811
815.6331	39.22736
815.779	34.09026
815.9249	36.65501
816.0707	36.88935
816.2166	31.68045
816.3625	25.04913
816.5083	26.99809
816.6542	34.77853
816.8	35.37458
816.9458	28.832
817.0916	30.10955
817.2374	35.88798
817.3832	38.30199
817.5289	33.54342
817.6747	32.72746
817.8204	31.56908
817.9662	32.34117
818.1119	34.30035
818.2576	32.0779
818.4034	33.93498
818.5491	36.35757
818.6948	35.7931
818.8405	34.01564
818.9861	37.67379
819.1318	35.44114
819.2774	31.37161
819.423	35.54984
819.5687	31.36885
819.7143	37.60638
819.8599	33.21472
820.0055	31.91257
820.1511	36.9719
820.2967	36.71404
820.4422	35.26687
820.5878	35.19772
820.7333	38.72808
820.8788	37.48375
821.0244	32.93485
821.1699	29.66745
821.3154	33.09464
821.4609	34.45829
821.6064	38.53808
821.7519	35.90483
821.8973	37.00409
822.0428	31.88947
822.1882	39.23045
822.3337	32.21406
822.4791	32.9435
822.6245	31.21463
822.7699	25.54867
822.9153	23.13996
823.0607	19.14235
823.2061	21.12951
823.3514	29.62205
823.4968	26.48715
823.6422	28.57772
823.7875	37.41305
823.9328	40.82608
824.0781	33.48628
824.2234	36.75154
824.3687	33.58916
824.514	36.80501
824.6592	33.70048
824.8045	37.96825
824.9498	34.37972
825.095	37.48847
825.2402	34.82174
825.3854	35.3584
825.5306	33.78057
825.6758	32.24172
825.821	35.22084
825.9662	33.29574
826.1114	35.53337
826.2565	37.2986
826.4017	34.9219
826.5468	35.66418
826.692	37.45914
826.837	38.91421
826.9822	34.80053
827.1273	33.17287
827.2723	30.73495
827.4174	27.3967
827.5625	28.84851
827.7075	32.64371
827.8526	33.71701
827.9976	32.47858
828.1426	30.70033
828.2877	30.25
828.4327	28.54468
828.5776	29.18459
828.7227	27.35563
828.8676	29.40762
829.0126	29.67073
829.1575	25.77584
829.3024	27.62088
829.4474	28.73654
829.5923	32.35897
829.7372	28.97308
829.8821	31.41207
830.027	32.05275
830.1719	32.92179
830.3168	31.02233
830.4616	30.46264
830.6064	33.36591
830.7513	35.21958
830.8961	34.49061
831.041	34.69598
831.1857	32.04571
831.3306	32.90311
831.4753	31.77858
831.6201	31.34376
831.7649	27.05017
831.9096	24.44074
832.0544	25.81634
832.1991	31.63097
832.3438	31.99931
832.4885	30.86646
832.6332	31.44968
832.778	34.43383
832.9226	33.46128
833.0673	32.26463
833.2119	30.86895
833.3566	28.98478
833.5012	26.33578
833.6459	31.44172
833.7905	28.78829
833.9351	28.99252
834.0797	26.17956
834.2243	31.68503
834.3688	30.93344
834.5134	36.81838
834.658	36.89693
834.8026	34.41375
834.9471	28.80313
835.0916	27.16873
835.2361	28.33034
835.3806	33.57764
835.5251	30.94994
835.6696	26.66079
835.8141	32.19857
835.9586	28.0152
836.103	28.27296
836.2474	30.45622
836.3918	31.25475
836.5363	29.26
836.6807	30.19712
836.8251	35.42837
836.9695	30.76552
837.1138	33.1735
837.2582	28.94248
837.4026	31.24132
837.5469	28.29838
837.6913	27.89134
837.8356	29.64687
837.9799	29.77036
838.1242	35.07535
838.2686	29.18451
838.4128	26.77427
838.5571	30.81796
838.7014	28.8582
838.8456	35.34653
838.9899	28.1043
839.1341	33.21738
839.2783	28.849
839.4225	27.13387
839.5667	28.37362
839.7109	31.38856
839.8551	31.96767
839.9993	27.87542
840.1434	29.28501
840.2876	32.83003
840.4317	30.89599
840.5759	29.83842
840.72	29.81738
840.8641	30.63982
841.0082	28.56003
841.1523	28.53041
841.2963	30.52577
841.4404	29.10666
841.5845	30.87014
841.7285	30.52213
841.8726	31.67923
842.0165	30.4623
842.1606	31.90378
842.3046	32.10542
842.4485	33.43902
842.5925	32.34214
842.7365	27.28018
842.8805	31.38793
843.0244	30.85279
843.1684	31.4383
843.3123	28.53766
843.4562	28.88025
843.6002	29.13184
843.744	31.39028
843.8879	32.07887
844.0318	32.28477
844.1757	31.11352
844.3195	26.56149
844.4634	29.56331
844.6072	32.96685
844.751	29.44041
844.8948	23.5576
845.0386	27.56118
845.1824	27.11622
845.3262	29.07439
845.47	31.48884
845.6138	28.64212
845.7575	27.31448
845.9012	35.04862
846.045	31.70146
846.1887	28.14619
846.3324	32.77546
846.4761	29.83643
846.6198	29.52588
846.7635	25.52135
846.9071	26.13817
847.0508	28.512
847.1944	28.84748
847.3381	26.77938
847.4817	23.68056
847.6253	28.2284
847.7689	28.57906
847.9125	24.79874
848.0561	26.74277
848.1996	25.28657
848.3432	28.74642
848.4868	29.17152
848.6303	33.57321
848.7738	32.93698
848.9174	29.69605
849.0609	30.59609
849.2043	30.86879
849.3478	30.26776
849.4913	22.50255
849.6348	20.84983
849.7782	22.01403
849.9217	20.83304
850.0651	25.31853
850.2086	26.95593
850.3519	24.46681
850.4954	25.87736
850.6387	26.53341
850.7821	26.31044
850.9255	29.08283
851.0688	30.00045
851.2122	26.60176
851.3555	29.88296
851.4988	33.93402
851.6422	25.6746
851.7855	22.10626
851.9288	23.68966
852.0721	26.70048
852.2153	29.33383
852.3586	31.9229
852.5018	27.21078
852.6451	25.30371
852.7883	30.85958
852.9315	26.76431
853.0748	32.25415
853.218	27.25479
853.3611	25.88433
853.5043	24.30317
853.6475	22.88919
853.7906	27.08042
853.9338	23.26424
854.0769	23.63466
854.22	21.55514
854.3632	20.69023
854.5063	21.45018
854.6494	20.95359
854.7924	20.52476
854.9355	21.77755
855.0786	24.2811
855.2216	24.09038
855.3647	22.19276
855.5077	25.2581
855.6507	23.91234
855.7937	21.4662
855.9367	28.94699
856.0797	28.068
856.2227	25.21899
856.3657	23.73831
856.5086	25.04735
856.6516	21.88024
856.7945	24.29102
856.9374	26.37013
857.0803	20.22813
857.2232	24.87284
857.3661	25.92413
857.509	24.8472
857.6519	29.76284
857.7947	24.8417
857.9376	26.34736
858.0804	23.82186
858.2232	29.26256
858.366	26.66779
858.5089	30.2932
858.6516	25.94673
858.7944	26.72616
858.9372	24.27218
859.08	23.94891
859.2227	25.56216
859.3654	26.35515
859.5082	24.99907
859.6509	21.97863
859.7936	19.562
859.9363	19.66552
860.079	19.75265
860.2217	24.39536
860.3643	23.82168
860.507	24.63954
860.6496	25.06381
860.7922	22.27283
860.9349	25.88804
861.0775	23.34127
861.2201	24.36943
861.3627	23.99301
861.5052	22.4088
861.6478	24.26658
861.7904	21.95738
861.9329	26.40042
862.0755	23.45578
862.218	23.18838
862.3605	23.84142
862.503	24.23754
862.6455	23.42229
862.788	25.1909
862.9305	24.02884
863.0729	28.55939
863.2154	25.90344
863.3578	24.9844
863.5002	24.29923
863.6426	28.94991
863.7851	25.77636
863.9275	19.50612
864.0698	19.2098
864.2122	21.98271
864.3546	25.79679
864.4969	24.05898
864.6393	20.14334
864.7816	23.51235
864.924	23.03675
865.0662	21.37614
865.2086	21.32365
865.3508	23.01243
865.4931	22.40804
865.6354	22.1153
865.7776	21.74799
865.9199	18.45025
866.0621	21.08977
866.2043	16.06817
866.3466	18.61899
866.4888	21.85821
866.6309	19.17772
866.7731	19.6024
866.9153	18.23864
867.0574	18.56137
867.1996	24.30134
867.3417	22.72124
867.4839	24.383
867.626	20.20938
867.7681	22.59325
867.9102	22.51802
868.0522	22.90577
868.1943	20.90179
868.3364	19.50665
868.4785	23.8124
868.6205	20.2903
868.7625	24.5611
868.9045	23.63948
869.0465	20.53234
869.1885	28.91862
869.3305	24.05824
869.4725	22.71527
869.6144	21.49884
869.7564	22.12916
869.8983	22.12193
870.0403	22.37451
870.1822	22.14752
870.3241	23.08983
870.466	23.02396
870.6079	22.78898
870.7498	19.57695
870.8916	19.11619
871.0335	20.62497
871.1754	20.41321
871.3171	22.82642
871.459	22.43318
871.6008	20.63182
871.7426	20.09067
871.8844	19.87349
872.0262	24.15505
872.1679	18.18921
872.3097	20.63717
872.4514	20.4534
872.5931	21.19814
872.7349	21.35155
872.8766	24.9487
873.0183	20.56622
873.16	25.22255
873.3017	22.75572
873.4434	20.1932
873.585	23.19668
873.7266	23.64855
873.8683	20.15232
874.0099	16.75975
874.1516	17.34966
874.2932	20.59912
874.4348	21.35657
874.5763	23.50657
874.7179	22.09884
874.8594	23.9046
875.001	21.14567
875.1425	21.1531
875.2841	17.49604
875.4256	15.20023
875.5671	17.21235
875.7086	19.31123
875.85	19.77866
875.9915	21.43321
876.133	19.80265
876.2744	17.6517
876.4159	22.37897
876.5573	21.60759
876.6987	19.19658
876.8401	17.83018
876.9815	17.89456
877.1229	19.76767
877.2643	14.24065
877.4056	19.72537
877.547	17.33574
877.6884	16.36401
877.8297	20.17993
877.971	18.66443
878.1123	17.10235
878.2536	18.08755
878.3949	19.56148
878.5362	20.52843
878.6774	22.89926
878.8187	22.16721
878.9599	18.79968
879.1011	20.43367
879.2424	14.3468
879.3836	13.78703
879.5248	13.40549
879.666	18.68504
879.8071	18.61237
879.9483	21.24808
880.0895	17.28235
880.2306	15.14161
880.3718	15.88258
880.5129	15.59623
880.654	17.55271
880.7951	16.47805
880.9362	17.5223
881.0773	18.53979
881.2183	13.47867
881.3594	22.11205
881.5004	19.70221
881.6414	14.704
881.7825	19.67014
881.9235	18.24374
882.0645	17.20746
882.2054	17.58514
882.3464	14.01798
882.4874	16.13022
882.6284	20.3623
882.7693	19.85614
882.9103	15.83802
883.0512	18.34417
883.1921	17.32122
883.333	16.86941
883.4739	14.88658
883.6147	18.53883
883.7556	18.14153
883.8965	16.11288
884.0374	17.03648
884.1782	14.90349
884.319	17.18931
884.4598	19.50012
884.6006	12.08313
884.7414	13.71912
884.8822	16.53213
885.0229	17.4485
885.1637	16.2005
885.3044	12.52683
885.4452	15.28026
885.5859	17.15895
885.7266	18.67996
885.8673	16.48004
886.008	11.14553
886.1487	14.51404
886.2894	20.73457
886.43	20.65079
886.5707	16.84712
886.7113	12.79471
886.8519	18.05668
886.9926	19.34193
887.1331	20.51328
887.2737	15.73952
887.4143	16.61173
887.5549	19.14606
887.6954	15.54256
887.836	14.74762
887.9765	10.09623
888.1171	15.64485
888.2576	17.03913
888.3981	17.84777
888.5386	20.66007
888.679	19.79845
888.8195	20.94242
888.96	15.79903
889.1004	12.59586
889.2408	16.70841
889.3813	18.00316
889.5217	14.37739
889.6621	16.40927
889.8025	15.49708
889.9429	14.31641
890.0833	13.8035
890.2236	12.62213
890.364	19.7441
890.5043	15.43421
890.6446	16.44327
890.7849	14.50144
890.9252	14.06239
891.0655	18.35258
891.2058	14.85929
891.3461	19.95092
891.4863	18.13276
891.6266	16.17099
891.7668	13.79888
891.907	18.54745
892.0472	18.40141
892.1874	14.71586
892.3276	13.38518
892.4678	10.93311
892.608	15.98325
892.7481	14.73522
892.8883	16.48646
893.0284	17.57188
893.1685	14.27968
893.3087	13.73086
893.4487	12.24407
893.5889	14.9537
893.7289	14.68209
893.869	14.07535
894.009	16.89875
894.1491	12.59499
894.2891	18.30272
894.4291	16.68385
894.5692	13.75268
894.7092	9.524045
894.8491	9.785061
894.9891	15.90034
895.1291	11.82583
895.269	9.889596
895.409	7.897836
895.549	13.64689
895.6888	9.877031
895.8288	13.99976
895.9687	13.38666
896.1086	10.18703
896.2484	13.06481
896.3883	11.93664
896.5281	9.002716
896.668	9.906824
896.8079	10.7711
896.9476	12.51766
897.0875	11.7354
897.2272	10.16317
897.3671	7.005914
897.5068	6.50838
897.6466	12.83787
897.7864	11.06875
897.9261	10.78988
898.0658	14.41256
898.2056	12.56779
898.3453	10.30883
898.4849	15.69337
898.6246	12.57189
898.7643	9.830198
898.904	7.612401
899.0436	6.403663
899.1833	7.785437
899.3229	12.93598
899.4625	9.207361
899.6021	11.00592
899.7417	14.13587
899.8813	12.8656
900.0209	11.48205
900.1605	8.357512
900.3	9.513574
900.4395	11.40223
900.579	9.799882
900.7186	5.808579
900.8581	13.01046
900.9976	14.18954
901.1371	8.795889
901.2766	8.35662
901.416	7.935441
901.5555	7.066902
901.6949	5.788432
901.8344	8.319092
901.9738	11.30639
902.1132	14.97605
902.2526	15.07771
902.3919	13.84047
902.5313	8.444769
902.6707	4.615733
