SPECTRUM DATA FILE
SpectrumCount:	1
PixelCount:	3648
UserName:	ToughBook User
SampleName:	
LightSource:	
Comments:	
DeviceName:	Qwave
DeviceManufacturer:	Broadcom
DeviceSerialNo:	11311

Name:	last spectrum
Date:	2024-05-02T15:07:29.8286800+02:00
ExposureTime:	0.02
TemporalAvg:	1
IntensityUnit:	normalizedCounts
CCDLoadLevel:	0.0228147
Temperature:	27.96298
DiagramColor:	200
ProcessingSteps:	335

Wavelength [nm]	Intensity1
334.421	8.604831
334.5891	6.151508
334.7573	-0.2476255
334.9254	-0.9985455
335.0935	4.43513
335.2616	9.227743
335.4297	5.162549
335.5978	5.450905
335.7659	2.867301
335.934	5.935501
336.1021	4.632779
336.2701	1.655853
336.4382	4.844212
336.6063	3.725667
336.7744	3.637646
336.9424	7.582038
337.1105	5.528757
337.2785	4.356646
337.4466	2.261868
337.6146	1.522242
337.7827	2.929204
337.9507	6.351966
338.1187	7.052583
338.2867	3.822633
338.4548	4.904166
338.6228	3.104407
338.7908	2.795384
338.9588	0.4257861
339.1268	5.467725
339.2948	9.051093
339.4628	3.915931
339.6308	5.718057
339.7988	4.340207
339.9667	5.924061
340.1347	0.7420961
340.3027	2.911964
340.4707	7.356504
340.6386	4.75913
340.8066	1.961115
340.9745	6.160213
341.1425	5.05251
341.3104	4.257379
341.4784	6.997624
341.6463	1.965734
341.8142	6.927675
341.9821	6.193231
342.1501	6.42026
342.318	6.171957
342.4859	7.058754
342.6538	5.857724
342.8217	4.424899
342.9896	1.381079
343.1575	2.966628
343.3254	8.831251
343.4933	2.41611
343.6612	4.127947
343.829	0.2357409
343.9969	6.279927
344.1648	5.729683
344.3326	8.734502
344.5005	6.282511
344.6683	3.219245
344.8362	4.292634
345.004	-0.0726426
345.1719	5.960299
345.3397	5.6696
345.5075	8.016817
345.6754	5.202409
345.8432	2.125861
346.011	3.782173
346.1788	1.880504
346.3466	5.787872
346.5144	7.009004
346.6822	4.667586
346.85	3.081276
347.0178	5.147372
347.1856	5.523585
347.3534	6.667729
347.5211	2.959254
347.6889	-0.01896504
347.8567	1.658382
348.0244	1.870681
348.1922	3.811583
348.3599	3.445858
348.5277	5.41364
348.6954	5.202994
348.8632	8.01673
349.0309	0.6787146
349.1986	4.895233
349.3663	7.146268
349.5341	6.498214
349.7018	7.465071
349.8695	6.294563
350.0372	6.029667
350.2049	5.138361
350.3726	3.150902
350.5403	-0.3620509
350.7079	3.960554
350.8756	3.761683
351.0433	3.000623
351.211	5.065741
351.3786	3.740764
351.5463	4.299704
351.714	-0.4257423
351.8816	11.11065
352.0493	10.95202
352.2169	4.785931
352.3846	5.721357
352.5522	8.37571
352.7198	3.844884
352.8875	8.982073
353.0551	8.284379
353.2227	6.328332
353.3903	4.654154
353.5579	3.586246
353.7255	5.191105
353.8931	7.720508
354.0607	6.89229
354.2283	2.387281
354.3958	1.834323
354.5634	4.40766
354.731	2.300073
354.8986	6.350229
355.0661	1.343635
355.2337	3.056499
355.4012	1.853203
355.5688	3.861132
355.7363	5.33902
355.9039	4.517988
356.0714	1.348752
356.239	8.823707
356.4065	3.198763
356.574	6.769279
356.7415	9.764874
356.909	5.787892
357.0765	5.352571
357.244	3.353112
357.4115	3.3223
357.579	5.20837
357.7465	8.715439
357.914	9.193196
358.0815	6.502697
358.249	5.110624
358.4164	7.118483
358.5839	2.666183
358.7513	10.06882
358.9188	6.119034
359.0862	6.905223
359.2537	11.53031
359.4211	-0.04149825
359.5886	4.622333
359.756	2.714137
359.9234	6.602249
360.0909	2.259027
360.2583	5.041587
360.4257	5.642814
360.5931	6.853627
360.7605	9.263392
360.9279	8.635761
361.0953	4.60925
361.2627	3.696654
361.4301	11.13146
361.5974	0.8967941
361.7648	2.597352
361.9322	5.149869
362.0995	6.347438
362.2669	4.089103
362.4343	8.771409
362.6016	11.21285
362.769	9.138597
362.9363	12.91345
363.1036	2.62476
363.271	5.348763
363.4383	5.952137
363.6056	7.155867
363.7729	7.686022
363.9402	5.098163
364.1075	3.383922
364.2748	5.462124
364.4421	5.567572
364.6094	4.598549
364.7767	4.191901
364.944	0.6450059
365.1113	7.757817
365.2786	10.14374
365.4458	10.0425
365.6131	9.260908
365.7803	12.13353
365.9476	10.41777
366.1148	7.118982
366.2821	7.309293
366.4493	8.036867
366.6166	3.452066
366.7838	4.581107
366.951	8.032803
367.1182	9.718702
367.2855	7.594166
367.4527	6.959036
367.6199	7.538416
367.7871	7.919153
367.9543	8.790257
368.1215	6.577581
368.2886	7.88339
368.4558	6.382556
368.623	7.477722
368.7902	6.034234
368.9573	11.18461
369.1245	9.706567
369.2917	7.380184
369.4588	8.419569
369.6259	7.946529
369.7931	8.596552
369.9602	3.573491
370.1274	5.061203
370.2945	5.331542
370.4616	6.548637
370.6287	7.073747
370.7958	8.592971
370.963	6.011823
371.1301	7.88422
371.2971	8.934634
371.4643	8.148213
371.6313	12.8131
371.7984	11.58771
371.9655	5.019078
372.1326	2.706173
372.2997	10.44957
372.4667	6.343284
372.6338	10.83139
372.8008	9.352874
372.9679	8.526007
373.1349	6.776707
373.3019	7.265018
373.469	4.752253
373.636	10.48694
373.803	8.866681
373.9701	8.208569
374.1371	5.003645
374.3041	8.696133
374.4711	2.704471
374.6381	5.025454
374.8051	5.51019
374.9721	8.345599
375.1391	9.002968
375.3061	9.559618
375.473	13.31737
375.64	10.4629
375.8069	8.453334
375.9739	11.48377
376.1409	9.244596
376.3078	13.53462
376.4748	9.474495
376.6417	12.83543
376.8087	9.323905
376.9756	7.92006
377.1425	10.0228
377.3094	8.281464
377.4763	11.39353
377.6432	8.256881
377.8102	5.439668
377.9771	4.614715
378.144	5.845855
378.3109	11.80807
378.4777	10.65352
378.6446	6.413818
378.8115	7.829627
378.9784	5.249598
379.1452	4.155614
379.3121	9.596722
379.4789	11.42839
379.6458	7.619641
379.8127	6.195195
379.9795	5.288989
380.1463	7.005087
380.3131	8.003126
380.48	11.49647
380.6468	13.33038
380.8136	8.181308
380.9804	8.640771
381.1472	9.979856
381.314	12.40663
381.4808	6.899104
381.6476	9.298316
381.8144	11.28584
381.9812	9.440389
382.148	6.94564
382.3147	6.860344
382.4815	9.755442
382.6483	7.665648
382.815	5.78279
382.9818	4.211311
383.1485	5.632863
383.3153	10.17534
383.482	11.69172
383.6487	9.400743
383.8155	5.434518
383.9822	5.929717
384.1489	11.05277
384.3156	14.57104
384.4823	12.18264
384.649	6.669272
384.8157	8.093307
384.9824	7.877377
385.1491	5.030763
385.3158	9.317048
385.4825	5.776224
385.6491	12.45889
385.8158	10.82528
385.9825	7.677938
386.1491	13.16992
386.3157	14.42264
386.4824	8.849368
386.649	10.15247
386.8157	12.85872
386.9823	8.019491
387.1489	12.14833
387.3156	8.871865
387.4821	9.350057
387.6488	8.640032
387.8154	8.296431
387.982	12.91512
388.1486	4.393474
388.3152	10.61758
388.4818	8.121152
388.6483	8.184062
388.8149	7.159127
388.9815	10.62115
389.148	10.0682
389.3146	9.080714
389.4811	4.859014
389.6477	6.772923
389.8142	8.998325
389.9808	10.5546
390.1473	15.30824
390.3138	9.310909
390.4804	7.580612
390.6469	6.822642
390.8134	12.3654
390.9799	12.26833
391.1464	14.36172
391.3129	12.30555
391.4794	10.37344
391.6459	9.637238
391.8124	9.935306
391.9789	11.53783
392.1453	12.15229
392.3118	10.24802
392.4782	6.740398
392.6447	10.81017
392.8112	15.08748
392.9776	11.15054
393.144	6.371337
393.3105	8.185866
393.4769	8.265178
393.6433	7.684142
393.8098	7.068706
393.9762	6.75758
394.1426	7.210613
394.309	10.35482
394.4754	10.47173
394.6418	7.994761
394.8082	6.069147
394.9746	10.15272
395.141	14.93847
395.3073	13.32271
395.4737	11.81164
395.64	13.77536
395.8064	12.12681
395.9728	13.80199
396.1391	13.65854
396.3055	9.740615
396.4718	11.6517
396.6381	6.484038
396.8045	6.37594
396.9708	9.754203
397.1371	15.42472
397.3034	14.36897
397.4697	12.43766
397.636	12.12917
397.8023	8.76092
397.9686	11.05118
398.1349	12.30614
398.3012	10.22796
398.4675	11.89045
398.6337	11.1684
398.8	9.414723
398.9662	12.87309
399.1325	9.082259
399.2988	12.94025
399.465	15.01276
399.6313	12.74144
399.7975	14.56064
399.9637	12.45034
400.1299	13.33269
400.2961	15.03268
400.4624	14.30098
400.6286	16.15173
400.7948	15.20749
400.961	12.82784
401.1272	20.03565
401.2934	16.34132
401.4595	12.66254
401.6257	14.1087
401.7919	14.75292
401.9581	13.27554
402.1242	14.5836
402.2904	15.20067
402.4565	12.09771
402.6227	11.5818
402.7888	13.25794
402.955	13.26572
403.1211	12.55666
403.2872	16.7618
403.4533	13.61942
403.6194	14.61697
403.7856	13.51554
403.9517	14.57817
404.1177	12.91908
404.2838	17.34339
404.4499	15.28415
404.616	15.39026
404.7821	14.90575
404.9482	15.79239
405.1142	14.97017
405.2803	14.42156
405.4464	13.9862
405.6124	15.32059
405.7784	15.05392
405.9445	14.08818
406.1105	11.38414
406.2766	10.67664
406.4426	14.11045
406.6086	15.25795
406.7746	14.3863
406.9406	12.53403
407.1066	19.48156
407.2726	13.04187
407.4386	8.845725
407.6046	12.85006
407.7706	10.61331
407.9366	11.95176
408.1025	18.41366
408.2685	18.93482
408.4344	18.26555
408.6004	12.2612
408.7664	17.44527
408.9323	19.07764
409.0983	17.9504
409.2642	18.54029
409.4301	16.23961
409.596	13.614
409.762	14.48087
409.9279	21.25365
410.0938	14.10071
410.2597	12.20048
410.4256	14.07884
410.5915	14.00428
410.7574	18.89676
410.9232	15.77876
411.0891	21.46668
411.255	17.11708
411.4209	19.79978
411.5867	17.96467
411.7526	17.5216
411.9184	22.74152
412.0843	19.50075
412.2501	18.88158
412.4159	20.17303
412.5818	17.78495
412.7476	17.49738
412.9134	19.38098
413.0792	15.5506
413.245	22.49404
413.4108	16.0648
413.5766	15.04018
413.7424	19.44621
413.9082	20.90428
414.074	17.40548
414.2397	14.87891
414.4055	18.00355
414.5713	17.48733
414.737	22.21443
414.9028	22.93178
415.0685	21.42502
415.2343	21.06741
415.4	18.02297
415.5658	17.92897
415.7315	17.18441
415.8972	17.12855
416.0629	15.62562
416.2286	16.9223
416.3943	24.66112
416.56	20.60942
416.7257	22.1068
416.8914	20.12532
417.0571	22.1287
417.2228	19.30457
417.3884	16.16591
417.5541	21.75147
417.7198	21.82767
417.8854	19.26465
418.0511	19.11613
418.2167	18.45819
418.3824	18.30371
418.548	16.73315
418.7136	23.82417
418.8792	21.26353
419.0449	24.72137
419.2105	22.13617
419.3761	24.24959
419.5417	24.0275
419.7073	23.40699
419.8729	19.45546
420.0385	21.57794
420.204	19.64508
420.3696	18.94379
420.5352	20.1089
420.7007	16.82525
420.8663	15.06503
421.0319	21.55741
421.1974	21.70159
421.3629	23.05693
421.5285	19.65144
421.694	22.48186
421.8595	19.28487
422.0251	23.85781
422.1906	25.34316
422.3561	21.0657
422.5216	22.34327
422.6871	20.03839
422.8526	22.2022
423.0181	20.46516
423.1835	22.54057
423.349	22.05667
423.5145	24.0513
423.68	20.26269
423.8454	21.92338
424.0109	21.64137
424.1763	24.93901
424.3418	20.25334
424.5072	20.75655
424.6726	20.69793
424.838	20.55226
425.0035	20.96113
425.1689	22.37348
425.3343	22.62524
425.4997	20.61956
425.6651	26.05902
425.8305	19.60817
425.9959	23.59738
426.1613	25.80287
426.3267	22.65495
426.492	22.92635
426.6574	22.98077
426.8228	22.97978
426.9881	17.22621
427.1534	26.57945
427.3188	23.29551
427.4841	24.54263
427.6495	22.26183
427.8148	25.25915
427.9801	24.63351
428.1454	23.30231
428.3107	21.91105
428.476	29.68778
428.6414	25.51104
428.8066	23.25631
428.9719	20.63585
429.1372	19.53555
429.3025	22.34286
429.4678	20.76687
429.633	26.82033
429.7983	23.04846
429.9636	17.34505
430.1288	22.25521
430.294	17.97641
430.4593	19.94208
430.6245	17.62519
430.7897	15.56235
430.955	23.46931
431.1202	22.17716
431.2854	25.08372
431.4506	20.72072
431.6158	20.34706
431.781	24.08434
431.9462	31.723
432.1114	27.44421
432.2766	25.30095
432.4417	20.92842
432.6069	24.35832
432.772	28.67602
432.9372	25.70308
433.1024	27.75906
433.2675	27.10563
433.4326	23.51175
433.5977	27.36254
433.7629	27.36707
433.928	22.30202
434.0931	19.35106
434.2582	23.98498
434.4233	24.11167
434.5884	30.11033
434.7535	25.61137
434.9186	29.48241
435.0837	28.12768
435.2488	25.56356
435.4138	21.86181
435.5789	29.70559
435.744	29.23128
435.909	29.02448
436.0741	27.46719
436.2391	29.75692
436.4042	30.37089
436.5692	29.79332
436.7342	27.74548
436.8992	28.6844
437.0643	29.56841
437.2293	27.57403
437.3943	27.27941
437.5593	28.76786
437.7243	27.72929
437.8893	29.6069
438.0542	30.78536
438.2192	27.13823
438.3842	31.13297
438.5491	29.75794
438.7141	30.70471
438.8791	29.99863
439.044	33.02332
439.209	34.25838
439.3739	30.14241
439.5388	36.77903
439.7037	34.69286
439.8687	34.19047
440.0336	32.92528
440.1985	30.54734
440.3634	32.13675
440.5283	26.1925
440.6932	27.47582
440.8581	28.82505
441.0229	31.73948
441.1878	38.03925
441.3527	33.3949
441.5175	30.7282
441.6824	33.41736
441.8472	29.30383
442.0121	37.61158
442.1769	36.27122
442.3418	34.3396
442.5066	36.19328
442.6714	33.72262
442.8362	34.72515
443.001	32.42387
443.1659	38.71275
443.3307	33.46857
443.4955	36.53402
443.6602	36.78209
443.825	36.81446
443.9898	36.32446
444.1546	37.376
444.3193	31.93051
444.4841	31.50972
444.6488	28.16381
444.8136	28.75188
444.9783	29.5128
445.1431	36.75228
445.3078	36.81723
445.4725	31.38358
445.6372	35.33827
445.802	31.16856
445.9667	31.10216
446.1314	31.86467
446.2961	29.64585
446.4608	33.46943
446.6255	36.47888
446.7901	30.75931
446.9548	30.82427
447.1195	34.55358
447.2841	35.85291
447.4488	34.00865
447.6134	34.09579
447.7781	40.24443
447.9427	35.65072
448.1074	38.83798
448.272	37.66703
448.4366	37.32927
448.6012	35.64515
448.7658	35.21229
448.9305	35.04379
449.095	37.47301
449.2596	37.11268
449.4242	38.17701
449.5888	36.68866
449.7534	37.75319
449.9179	34.81678
450.0825	37.70861
450.2471	37.34713
450.4116	37.02832
450.5762	40.27711
450.7407	37.18931
450.9052	38.88063
451.0698	37.82388
451.2343	35.99552
451.3988	38.05884
451.5633	45.22607
451.7278	39.68182
451.8923	34.17719
452.0568	39.92286
452.2213	40.98932
452.3858	42.93939
452.5503	42.19445
452.7148	36.40328
452.8792	36.73919
453.0437	37.91119
453.2081	34.82126
453.3726	38.73156
453.537	37.71217
453.7015	34.71516
453.8659	37.58194
454.0303	44.33816
454.1947	41.66567
454.3592	40.34036
454.5236	42.51669
454.688	38.00103
454.8524	39.68342
455.0168	41.99446
455.1811	51.05991
455.3455	41.54373
455.5099	44.04179
455.6743	39.73505
455.8386	38.96992
456.003	39.50581
456.1673	44.35509
456.3317	38.63658
456.496	41.83104
456.6603	44.86259
456.8246	43.36356
456.989	45.53894
457.1533	48.27854
457.3176	46.99799
457.4819	45.75362
457.6462	42.56479
457.8105	48.25251
457.9748	41.75002
458.1391	37.79907
458.3033	34.86515
458.4676	38.23346
458.6319	39.82958
458.7961	40.22933
458.9604	40.15405
459.1246	44.62844
459.2888	39.38852
459.4531	41.23277
459.6173	39.73236
459.7815	43.11599
459.9457	43.47884
460.11	39.485
460.2741	41.98488
460.4384	39.46653
460.6025	41.05502
460.7667	46.67644
460.9309	47.25706
461.0951	38.00793
461.2592	39.74081
461.4234	44.51163
461.5876	40.2752
461.7517	48.25984
461.9159	45.2042
462.08	41.55862
462.2441	45.5932
462.4082	45.71307
462.5724	41.00603
462.7365	40.17202
462.9006	40.87154
463.0647	41.7448
463.2288	42.63864
463.3929	42.01444
463.557	40.95015
463.721	39.69494
463.8851	44.59285
464.0492	42.98526
464.2132	44.00287
464.3773	44.94611
464.5414	40.65373
464.7054	43.40323
464.8694	43.16738
465.0334	40.52269
465.1975	36.10239
465.3615	44.48449
465.5255	37.84912
465.6895	38.6995
465.8535	41.56303
466.0175	41.00824
466.1815	43.38337
466.3455	45.1849
466.5095	40.08279
466.6734	40.57004
466.8374	41.22921
467.0014	37.72034
467.1653	39.65578
467.3293	42.34348
467.4932	45.00256
467.6571	38.5502
467.8211	38.51778
467.985	40.67042
468.1489	40.60884
468.3128	40.77485
468.4767	40.28334
468.6406	41.35675
468.8045	45.5154
468.9684	45.29364
469.1323	47.15672
469.2962	42.11634
469.46	46.32129
469.6239	46.13907
469.7878	36.69395
469.9516	39.808
470.1154	45.68412
470.2793	45.29258
470.4431	44.9111
470.607	41.89461
470.7708	44.87356
470.9346	43.67702
471.0984	49.3126
471.2622	47.27385
471.426	43.33429
471.5898	39.44957
471.7536	43.59213
471.9174	45.39647
472.0811	41.25278
472.2449	42.09706
472.4087	46.62644
472.5724	49.32296
472.7362	49.14106
472.8999	41.64227
473.0637	41.21373
473.2274	41.82086
473.3911	41.38293
473.5548	43.40978
473.7185	47.97143
473.8822	42.16559
474.0459	39.2971
474.2096	48.5181
474.3733	45.99669
474.537	46.54379
474.7007	50.37634
474.8643	51.6081
475.028	51.03011
475.1917	42.09005
475.3553	43.6927
475.519	41.74254
475.6826	49.57409
475.8463	49.48447
476.0099	46.41498
476.1735	49.55058
476.3371	48.09855
476.5007	45.83433
476.6643	40.9762
476.8279	39.92346
476.9915	45.40273
477.1551	43.14915
477.3187	45.08994
477.4823	47.73885
477.6458	50.4374
477.8094	55.01273
477.9729	48.58236
478.1365	49.42309
478.3	46.34952
478.4636	44.04035
478.6271	40.86578
478.7906	44.545
478.9541	43.89384
479.1176	42.64797
479.2812	44.06099
479.4447	46.99632
479.6082	49.43613
479.7716	50.05476
479.9351	48.06862
480.0986	50.62211
480.2621	46.91023
480.4255	48.09594
480.589	43.68358
480.7524	42.78433
480.9159	45.41672
481.0793	49.02556
481.2428	48.78289
481.4062	49.49406
481.5696	45.09926
481.733	48.00766
481.8964	44.98903
482.0598	40.69231
482.2232	48.71597
482.3866	48.105
482.55	47.05149
482.7134	44.88002
482.8768	43.66468
483.0401	41.80718
483.2035	42.92266
483.3668	47.44466
483.5302	47.94942
483.6935	46.02151
483.8568	43.2728
484.0202	44.57438
484.1835	46.09565
484.3468	45.25499
484.5101	48.51974
484.6734	47.38836
484.8367	48.57074
485	38.80175
485.1633	40.50244
485.3266	45.43457
485.4899	45.1258
485.6531	40.44704
485.8164	38.49814
485.9796	38.91225
486.1429	38.51476
486.3061	39.86914
486.4694	36.94655
486.6326	40.97028
486.7958	45.66591
486.959	46.49019
487.1223	45.32932
487.2855	45.22119
487.4486	43.74461
487.6118	43.77103
487.775	49.57953
487.9382	47.69546
488.1014	44.44043
488.2646	42.60432
488.4277	42.00441
488.5909	44.99546
488.754	44.56181
488.9171	44.26578
489.0803	41.6444
489.2434	42.35637
489.4066	48.83333
489.5697	51.62242
489.7328	51.37299
489.8959	49.10397
490.059	45.90049
490.2221	48.18929
490.3852	50.74595
490.5482	47.52962
490.7113	45.35484
490.8744	43.26725
491.0374	44.41177
491.2005	45.68598
491.3636	53.3891
491.5266	47.48591
491.6896	41.74801
491.8527	40.73123
492.0157	43.23401
492.1787	44.71353
492.3417	43.46696
492.5047	43.66967
492.6677	52.58981
492.8307	48.09039
492.9937	45.23244
493.1567	46.797
493.3196	50.82718
493.4826	50.1145
493.6456	49.00205
493.8085	49.72486
493.9715	46.36146
494.1344	47.13362
494.2974	48.84713
494.4603	50.06601
494.6232	47.72333
494.7861	48.07148
494.949	55.07375
495.1119	49.80159
495.2748	48.56192
495.4377	49.81495
495.6006	52.00354
495.7635	45.26071
495.9264	51.34089
496.0892	48.99091
496.2521	51.53555
496.4149	50.18645
496.5778	50.23932
496.7407	42.46577
496.9035	47.30357
497.0663	49.48989
497.2291	48.39437
497.3919	49.21508
497.5547	51.21131
497.7176	51.44537
497.8804	49.40673
498.0432	49.66967
498.2059	44.6097
498.3687	46.91612
498.5315	50.24237
498.6942	54.35784
498.857	51.92912
499.0198	47.27526
499.1825	51.26698
499.3452	48.36112
499.508	46.25387
499.6707	48.76138
499.8334	50.63336
499.9962	49.33325
500.1589	47.50164
500.3216	49.37911
500.4843	48.73916
500.6469	45.69516
500.8096	49.50932
500.9723	53.42876
501.135	51.51027
501.2976	48.89719
501.4603	49.17558
501.623	48.02238
501.7856	44.39288
501.9482	48.0508
502.1109	46.36737
502.2735	48.12633
502.4361	51.10347
502.5987	45.94515
502.7614	51.62404
502.924	47.31583
503.0865	51.25268
503.2491	49.5975
503.4117	53.18866
503.5743	51.27188
503.7368	45.11269
503.8994	42.57915
504.062	41.63692
504.2245	43.72458
504.3871	48.25327
504.5496	51.61512
504.7121	49.2781
504.8746	49.61687
505.0372	49.55732
505.1997	53.48454
505.3622	53.99839
505.5247	49.69471
505.6872	50.5844
505.8497	59.74747
506.0121	57.14907
506.1746	54.30307
506.3371	50.44299
506.4995	52.67068
506.662	51.23432
506.8244	55.40554
506.9869	59.34869
507.1493	58.24783
507.3117	52.00281
507.4742	59.1599
507.6366	57.38976
507.799	55.2946
507.9614	51.78125
508.1238	54.97706
508.2862	56.35508
508.4485	54.94271
508.6109	53.46745
508.7733	58.57355
508.9357	58.74266
509.098	62.37523
509.2604	61.78502
509.4227	63.90318
509.5851	53.16859
509.7474	55.98978
509.9097	52.20426
510.072	52.94427
510.2343	58.09576
510.3966	59.83508
510.5589	61.65372
510.7212	52.33645
510.8835	51.10705
511.0458	55.69249
511.2081	55.5304
511.3703	55.25474
511.5326	53.48835
511.6949	53.60821
511.8571	57.80244
512.0193	64.42443
512.1816	67.16782
512.3438	54.29403
512.506	57.18497
512.6682	56.91558
512.8304	57.02417
512.9926	54.92451
513.1548	56.83912
513.317	52.52831
513.4792	52.71209
513.6414	56.20463
513.8035	56.59198
513.9657	54.55436
514.1279	59.66053
514.29	58.37363
514.4521	52.45029
514.6143	62.94349
514.7764	54.16449
514.9385	51.85043
515.1006	55.66631
515.2628	60.65751
515.4249	56.83037
515.587	59.89129
515.7491	60.6235
515.9111	63.95249
516.0732	66.96841
516.2353	59.92838
516.3973	57.05335
516.5594	55.59903
516.7214	55.26249
516.8835	48.00267
517.0455	51.81156
517.2076	51.09006
517.3696	57.17483
517.5316	54.09909
517.6937	64.3623
517.8557	68.1351
518.0176	64.18419
518.1796	60.52777
518.3416	53.55747
518.5036	50.30722
518.6656	54.85863
518.8275	63.0991
518.9895	63.08886
519.1514	63.08019
519.3134	61.70914
519.4753	65.94736
519.6373	61.94577
519.7992	59.63721
519.9611	67.08846
520.123	65.79488
520.2849	65.88541
520.4468	65.96082
520.6087	66.42967
520.7706	62.03208
520.9325	64.11938
521.0944	64.84123
521.2562	66.80567
521.4181	66.46177
521.58	67.1381
521.7418	69.67481
521.9036	69.16592
522.0655	68.39648
522.2273	68.5559
522.3891	72.49406
522.551	71.60497
522.7128	71.04859
522.8746	65.73587
523.0363	70.64771
523.1981	63.24577
523.3599	68.96667
523.5217	70.32153
523.6835	76.30137
523.8452	75.91914
524.007	75.57108
524.1687	79.05611
524.3304	77.39562
524.4922	75.37727
524.6539	77.43448
524.8157	71.15888
524.9774	70.5299
525.1391	72.24115
525.3008	74.16019
525.4625	74.83092
525.6241	72.96655
525.7858	78.92175
525.9475	76.1061
526.1092	78.29224
526.2709	72.24424
526.4325	67.5569
526.5942	65.8489
526.7558	67.79575
526.9174	69.37415
527.079	70.08701
527.2407	71.92168
527.4023	72.95575
527.5639	79.71323
527.7255	80.03487
527.8871	83.64055
528.0487	78.65809
528.2103	76.34814
528.3718	82.32404
528.5334	80.71897
528.695	81.05047
528.8565	82.96042
529.0181	85.6839
529.1796	86.51598
529.3412	86.02949
529.5027	82.94394
529.6642	81.19878
529.8257	83.78749
529.9872	85.37286
530.1487	82.42361
530.3102	89.55299
530.4717	83.81054
530.6332	79.74364
530.7947	85.90953
530.9562	85.3979
531.1176	86.39999
531.2791	88.07534
531.4405	89.10392
531.6019	84.94932
531.7634	86.24341
531.9248	84.86462
532.0862	87.50063
532.2477	93.02139
532.4091	79.18164
532.5704	75.30306
532.7319	82.60995
532.8932	80.52551
533.0546	79.18623
533.216	83.5602
533.3774	83.47806
533.5388	84.71272
533.7001	87.91235
533.8615	89.52705
534.0228	81.6677
534.1841	87.1775
534.3455	85.05653
534.5068	77.10009
534.6681	85.77982
534.8293	87.91382
534.9907	82.34708
535.152	85.20528
535.3132	84.04271
535.4745	91.15771
535.6358	92.14655
535.7971	91.30367
535.9583	92.29685
536.1196	92.57523
536.2808	89.20086
536.4421	89.13277
536.6033	88.74924
536.7645	84.17017
536.9258	81.46732
537.087	83.86449
537.2482	85.06944
537.4094	86.6214
537.5706	90.89261
537.7318	89.23068
537.8929	88.23969
538.0541	87.8308
538.2153	86.95975
538.3764	97.02394
538.5376	91.76919
538.6987	91.73
538.8599	89.45228
539.021	89.54823
539.1821	84.52583
539.3432	91.80515
539.5043	84.92382
539.6655	84.741
539.8265	86.26598
539.9876	85.21701
540.1487	87.09068
540.3098	83.80021
540.4708	88.40297
540.6319	87.05239
540.793	84.44669
540.954	82.59807
541.1151	83.15744
541.2761	84.89653
541.4371	77.877
541.5981	75.10503
541.7592	79.02247
541.9202	85.14781
542.0812	86.50335
542.2422	85.14161
542.4031	83.21339
542.5641	83.68259
542.7251	89.43037
542.886	88.88811
543.0471	85.64428
543.208	85.29425
543.369	84.11449
543.5298	84.32423
543.6908	89.3148
543.8517	92.56299
544.0126	96.7981
544.1736	95.34217
544.3345	95.03369
544.4954	86.88747
544.6563	87.73112
544.8171	88.90279
544.978	88.3187
545.1389	85.26062
545.2997	86.58853
545.4606	85.65495
545.6215	79.65418
545.7823	91.51109
545.9432	92.98669
546.104	87.3391
546.2648	84.1345
546.4256	85.76785
546.5864	83.3054
546.7473	81.46262
546.908	85.26919
547.0688	94.35146
547.2296	92.74657
547.3904	88.04528
547.5511	80.21205
547.7119	81.13118
547.8727	86.92089
548.0334	87.78133
548.1942	85.41444
548.3549	89.31706
548.5156	92.28743
548.6763	94.2094
548.837	94.80111
548.9977	88.67751
549.1584	83.68033
549.3192	90.9861
549.4798	86.96518
549.6405	88.85648
549.8011	90.65375
549.9619	88.46028
550.1225	89.8065
550.2831	84.91472
550.4438	83.93253
550.6044	89.10726
550.765	83.11559
550.9257	85.74588
551.0863	91.69711
551.2469	92.63522
551.4075	94.85661
551.5681	92.34302
551.7287	92.87894
551.8893	93.5731
552.0498	90.24034
552.2104	88.82857
552.371	89.04758
552.5315	93.37629
552.6921	91.24126
552.8526	86.172
553.0131	90.3959
553.1736	87.9891
553.3342	85.70841
553.4947	88.19562
553.6552	86.24643
553.8157	93.78688
553.9762	92.25983
554.1367	91.12291
554.2971	85.52869
554.4576	86.22051
554.618	83.00851
554.7785	82.74298
554.939	90.49654
555.0994	89.81467
555.2598	84.19526
555.4203	86.67126
555.5807	89.16969
555.7411	88.38179
555.9015	88.12933
556.0619	89.6759
556.2223	87.06645
556.3827	85.77294
556.5431	88.89284
556.7034	88.11668
556.8638	86.14522
557.0242	88.11736
557.1845	83.69651
557.3448	83.93575
557.5052	86.95914
557.6655	80.48706
557.8259	86.07962
557.9861	85.72842
558.1465	83.66583
558.3068	84.26575
558.467	86.36568
558.6274	77.05819
558.7877	79.98036
558.9479	78.24368
559.1082	81.877
559.2684	84.45725
559.4287	86.97263
559.5889	77.35313
559.7491	79.36593
559.9094	80.819
560.0696	83.17913
560.2299	76.26688
560.3901	80.12715
560.5502	81.32327
560.7104	83.30386
560.8707	82.52022
561.0308	84.65293
561.191	81.22157
561.3511	80.59799
561.5114	84.56747
561.6714	78.28481
561.8316	76.06734
561.9918	78.94079
562.1519	74.18922
562.312	75.87273
562.4722	79.36277
562.6323	81.51469
562.7924	77.87047
562.9525	83.62156
563.1125	84.24995
563.2726	85.9479
563.4327	82.86184
563.5928	74.14551
563.7528	77.52608
563.9129	79.4043
564.0729	78.41397
564.233	78.66495
564.393	75.10727
564.553	79.50218
564.7131	82.23751
564.873	73.21276
565.0331	69.06276
565.1931	78.87291
565.353	81.55551
565.5131	74.53024
565.673	71.87749
565.833	75.46208
565.9929	77.36127
566.1529	78.77484
566.3129	72.34296
566.4728	78.307
566.6328	79.15151
566.7927	77.05495
566.9526	72.67753
567.1125	75.82873
567.2724	74.05117
567.4323	76.80938
567.5922	75.64374
567.7521	70.90007
567.9119	71.97862
568.0718	73.37908
568.2317	72.75325
568.3915	74.16949
568.5514	72.6115
568.7112	69.4762
568.871	68.02482
569.0309	68.83466
569.1907	74.65797
569.3505	73.99346
569.5103	70.00842
569.6701	74.39511
569.8299	68.99911
569.9897	62.27146
570.1495	61.4124
570.3092	69.028
570.469	70.15222
570.6287	65.82184
570.7885	67.37442
570.9482	68.38404
571.108	68.89497
571.2677	63.21138
571.4274	68.89287
571.5871	74.26764
571.7468	75.59489
571.9066	68.51641
572.0662	68.9108
572.2259	66.462
572.3856	70.99675
572.5452	67.98566
572.7049	67.99369
572.8646	72.8177
573.0242	66.64758
573.1838	70.33194
573.3435	68.34234
573.5031	67.16815
573.6627	72.79662
573.8223	74.00355
573.9819	71.88836
574.1415	68.73865
574.3011	66.33622
574.4607	65.16218
574.6203	61.96936
574.7798	68.394
574.9394	69.64949
575.099	67.42041
575.2585	61.1711
575.418	66.57983
575.5776	74.75997
575.7371	67.49969
575.8966	70.45749
576.0562	66.62719
576.2156	63.30761
576.3751	62.18633
576.5346	66.43958
576.6941	68.08775
576.8536	69.4994
577.0131	66.88959
577.1725	68.76337
577.332	69.58188
577.4914	69.37725
577.6508	66.87687
577.8103	61.2188
577.9697	58.46759
578.1291	61.97042
578.2885	59.87055
578.4479	58.80082
578.6073	61.64853
578.7667	62.18693
578.9261	66.59777
579.0854	60.9593
579.2448	63.95008
579.4042	59.30001
579.5635	64.0773
579.7229	64.81581
579.8822	67.92122
580.0416	61.16924
580.2009	63.11889
580.3602	63.97529
580.5195	62.25319
580.6788	64.48453
580.8381	62.40496
580.9974	62.35976
581.1566	64.77982
581.3159	61.66888
581.4752	62.0102
581.6345	55.18253
581.7937	56.77744
581.9529	63.88651
582.1122	62.26814
582.2714	60.27335
582.4306	59.08257
582.5898	59.29896
582.749	61.46355
582.9082	64.62553
583.0674	65.20952
583.2266	59.26627
583.3857	58.41416
583.5449	62.68795
583.7041	62.30156
583.8633	59.45911
584.0224	58.51387
584.1815	54.57063
584.3407	57.51771
584.4998	58.43234
584.6589	56.50297
584.818	55.59356
584.9771	62.17952
585.1362	66.73421
585.2953	62.55296
585.4544	59.50834
585.6135	57.77158
585.7725	59.49646
585.9316	58.05937
586.0906	57.36583
586.2497	56.30811
586.4087	58.15858
586.5677	54.04198
586.7267	54.36302
586.8858	60.74562
587.0448	57.57769
587.2038	54.7495
587.3628	57.52131
587.5218	63.75851
587.6807	64.85262
587.8397	59.0965
587.9987	56.96968
588.1577	55.15248
588.3166	55.11205
588.4755	55.81254
588.6345	56.97093
588.7934	54.01974
588.9523	52.97957
589.1112	55.79712
589.2701	56.11279
589.429	51.79417
589.5879	53.8759
589.7468	48.9563
589.9056	54.49549
590.0645	56.32111
590.2234	51.37034
590.3822	53.06464
590.5411	56.15792
590.6999	54.28756
590.8588	53.12464
591.0176	48.37318
591.1764	53.12871
591.3352	54.21057
591.494	49.32216
591.6528	53.87658
591.8116	54.22601
591.9703	47.63575
592.1291	54.38707
592.2878	58.07124
592.4467	53.65348
592.6053	54.60993
592.7641	50.33855
592.9229	50.27891
593.0816	55.58895
593.2403	54.93139
593.399	53.02442
593.5577	58.62695
593.7164	56.4077
593.8751	59.81718
594.0338	51.47707
594.1924	49.51276
594.3511	53.95662
594.5098	50.12006
594.6684	52.89998
594.8271	51.27529
594.9857	48.40192
595.1443	52.00176
595.303	51.79207
595.4615	48.5201
595.6202	49.25454
595.7787	52.34644
595.9374	60.84209
596.0959	53.02864
596.2545	53.34719
596.4131	54.22832
596.5717	52.68396
596.7302	52.68673
596.8887	54.91685
597.0473	57.69833
597.2058	58.68126
597.3644	55.07229
597.5229	47.46074
597.6814	51.19527
597.8399	58.10452
597.9984	57.19079
598.1569	56.97208
598.3154	52.05631
598.4738	56.24038
598.6323	53.68428
598.7908	53.00159
598.9492	51.85651
599.1076	48.2327
599.2661	56.27077
599.4245	59.21102
599.5829	56.90834
599.7413	60.33947
599.8997	51.95906
600.0581	51.84975
600.2165	52.19873
600.3749	52.9329
600.5333	53.09828
600.6917	51.92429
600.85	59.17439
601.0084	60.40626
601.1667	50.32034
601.325	52.24747
601.4833	57.99973
601.6417	56.48509
601.8	53.83833
601.9583	55.88531
602.1166	54.70327
602.2749	52.22295
602.4332	50.78121
602.5914	50.9248
602.7498	49.82322
602.908	53.53125
603.0662	52.63629
603.2245	53.15326
603.3828	54.70671
603.541	54.24988
603.6992	51.50834
603.8574	50.05353
604.0156	52.97564
604.1738	53.99427
604.332	55.36151
604.4902	48.21428
604.6484	48.89338
604.8065	55.41074
604.9647	54.40847
605.1229	49.89436
605.281	50.28298
605.4391	52.67816
605.5973	52.42938
605.7554	50.59689
605.9135	48.96641
606.0717	52.00718
606.2297	52.47078
606.3878	52.32364
606.5459	49.81654
606.704	52.37921
606.8621	50.85078
607.0201	53.10342
607.1782	52.45464
607.3362	56.36661
607.4943	54.40436
607.6523	53.09781
607.8104	58.24588
607.9684	50.7085
608.1264	51.86208
608.2844	51.18805
608.4424	50.00061
608.6003	54.27211
608.7584	52.89383
608.9163	53.77666
609.0743	51.30828
609.2322	49.98197
609.3902	52.73079
609.5482	47.40399
609.7061	51.56049
609.864	47.67331
610.0219	46.96309
610.1798	48.64788
610.3377	49.071
610.4956	45.7739
610.6535	56.05534
610.8114	47.67063
610.9693	46.68399
611.1271	39.05566
611.285	47.74545
611.4429	50.65496
611.6007	51.4273
611.7585	42.52545
611.9164	43.53465
612.0742	44.50593
612.232	46.07073
612.3898	48.94815
612.5476	46.50892
612.7054	47.3325
612.8632	50.56782
613.0209	48.86903
613.1787	49.06308
613.3365	50.50454
613.4942	49.68655
613.652	43.74706
613.8097	47.59634
613.9674	46.66431
614.1252	50.29611
614.2829	49.55164
614.4406	48.50308
614.5983	47.2584
614.756	48.14732
614.9136	45.59349
615.0714	44.80487
615.229	44.09137
615.3867	45.24135
615.5443	38.90966
615.702	48.01839
615.8596	55.44777
616.0172	51.7449
616.1748	49.37891
616.3325	45.94708
616.4901	45.76216
616.6476	45.65697
616.8052	43.78111
616.9628	45.99707
617.1204	47.40174
617.278	43.35112
617.4355	47.91693
617.5931	45.67747
617.7506	45.68104
617.9081	47.6436
618.0657	43.58326
618.2232	50.73969
618.3807	48.81897
618.5382	45.34303
618.6957	46.16682
618.8532	53.07537
619.0107	50.78292
619.1682	46.55726
619.3256	45.12311
619.4831	43.45103
619.6406	42.68296
619.798	44.18757
619.9554	45.43897
620.1129	45.5332
620.2703	44.93411
620.4277	48.05111
620.5851	49.52163
620.7425	41.77549
620.8998	44.01854
621.0573	44.51347
621.2146	45.01234
621.372	47.74446
621.5294	46.56181
621.6867	41.41485
621.8441	45.35899
622.0013	44.77411
622.1587	41.50261
622.316	42.93614
622.4733	47.84719
622.6306	43.57307
622.7879	44.52772
622.9452	44.22555
623.1025	42.92908
623.2598	41.1216
623.4171	41.82793
623.5743	43.12431
623.7316	40.41565
623.8888	46.2982
624.046	45.61265
624.2032	46.20459
624.3605	46.48045
624.5176	43.69283
624.6749	43.01631
624.8321	41.61965
624.9893	42.78751
625.1464	44.08591
625.3036	47.01024
625.4608	45.47627
625.6179	42.02759
625.7751	40.17061
625.9322	40.62114
626.0894	43.91948
626.2465	46.90361
626.4036	44.7197
626.5607	45.34692
626.7178	38.55524
626.8749	44.04274
627.032	44.56824
627.189	45.15722
627.3461	46.21527
627.5032	45.80082
627.6602	44.22087
627.8173	44.06514
627.9743	42.81248
628.1313	46.32935
628.2884	42.01092
628.4454	40.89338
628.6024	42.66698
628.7594	41.89511
628.9164	42.78067
629.0734	37.83477
629.2303	43.3716
629.3873	41.58924
629.5443	42.59335
629.7012	39.1797
629.8582	42.76256
630.0151	43.09501
630.172	39.35672
630.3289	38.8828
630.4858	38.91626
630.6428	42.7174
630.7996	47.06826
630.9565	50.13149
631.1134	47.11455
631.2703	42.20811
631.4272	42.92355
631.584	39.422
631.7408	44.0522
631.8977	45.2099
632.0546	40.76228
632.2114	39.51313
632.3682	38.71904
632.525	41.5937
632.6818	46.30216
632.8386	44.78644
632.9954	41.46956
633.1522	39.03346
633.3089	45.26472
633.4657	39.45
633.6224	41.93894
633.7792	43.12984
633.9359	38.81153
634.0927	46.23325
634.2494	40.49252
634.4061	38.37281
634.5628	41.52078
634.7195	36.84037
634.8762	44.78545
635.0329	39.25877
635.1895	42.32206
635.3462	41.08237
635.5029	45.119
635.6595	39.85741
635.8162	42.70266
635.9728	42.18859
636.1295	41.04794
636.2861	38.18243
636.4427	38.37499
636.5992	38.19244
636.7559	39.47443
636.9124	38.63942
637.069	39.96387
637.2256	40.1576
637.3821	37.09563
637.5387	37.49731
637.6953	41.54615
637.8518	41.84774
638.0084	40.86515
638.1649	45.35659
638.3214	42.82847
638.4779	43.35915
638.6344	40.39759
638.7909	42.06136
638.9474	44.62165
639.1038	47.65408
639.2603	39.75659
639.4167	41.86598
639.5732	43.17454
639.7297	41.13843
639.8861	39.06157
640.0425	35.73295
640.199	37.41303
640.3553	37.6067
640.5118	41.7612
640.6682	41.56391
640.8245	40.81945
640.981	40.80359
641.1373	40.94527
641.2936	41.73845
641.45	38.16279
641.6064	38.68722
641.7627	36.69324
641.9191	39.18177
642.0754	41.1535
642.2317	38.01113
642.388	37.39475
642.5443	38.096
642.7006	39.21732
642.8569	40.7454
643.0131	40.76532
643.1694	37.9341
643.3257	38.0131
643.4819	40.31654
643.6382	34.97801
643.7944	33.21646
643.9506	38.51415
644.1069	37.483
644.2631	39.67568
644.4193	38.65599
644.5754	36.02512
644.7316	39.28245
644.8878	40.54305
645.044	44.70819
645.2002	38.82625
645.3563	41.1191
645.5125	37.23861
645.6686	39.3169
645.8248	35.91825
645.9809	36.93692
646.137	43.18826
646.2931	35.43531
646.4492	34.82359
646.6053	39.98456
646.7614	38.06165
646.9174	36.09587
647.0735	36.43004
647.2296	37.22849
647.3856	37.1828
647.5417	40.63531
647.6977	41.18221
647.8537	38.7919
648.0098	35.59624
648.1658	36.75727
648.3218	31.69082
648.4777	33.1601
648.6337	39.95343
648.7897	37.63173
648.9457	33.33614
649.1016	37.18643
649.2576	34.44694
649.4135	37.87648
649.5695	36.91179
649.7254	39.28804
649.8813	37.26667
650.0372	37.9921
650.1932	39.62398
650.3491	37.25057
650.5049	33.14254
650.6608	34.04826
650.8167	34.37862
650.9725	33.51785
651.1284	38.80135
651.2842	35.82697
651.4401	35.85748
651.5959	36.9417
651.7518	36.55583
651.9076	31.08512
652.0634	36.37905
652.2192	34.12909
652.3749	34.18127
652.5308	37.41042
652.6865	34.49258
652.8423	36.07403
652.998	34.27615
653.1538	34.74211
653.3096	39.41322
653.4653	37.66332
653.621	36.91434
653.7767	36.90913
653.9324	35.24405
654.0881	34.85596
654.2438	28.19542
654.3995	38.33377
654.5552	35.63572
654.7109	35.1689
654.8665	29.14821
655.0222	32.72137
655.1778	33.17792
655.3334	35.93055
655.4891	40.91817
655.6447	36.67913
655.8003	34.34657
655.9559	36.77963
656.1115	31.43696
656.2671	37.74723
656.4227	26.94559
656.5782	31.07617
656.7338	32.49866
656.8893	34.60839
657.0449	34.16962
657.2004	34.24845
657.356	28.97555
657.5115	32.67791
657.667	31.80212
657.8225	33.50736
657.978	38.83377
658.1335	34.76346
658.289	37.02115
658.4445	36.35883
658.5999	35.92487
658.7554	34.48366
658.9108	32.08259
659.0663	30.64291
659.2217	32.68814
659.3771	33.45411
659.5325	30.86559
659.6879	28.4076
659.8433	28.12531
659.9987	35.15576
660.1541	34.91301
660.3095	29.44681
660.4648	26.64643
660.6202	31.11028
660.7756	33.73823
660.9309	34.12598
661.0862	36.8593
661.2416	35.89695
661.3969	31.69234
661.5522	32.20413
661.7075	31.69516
661.8628	35.00108
662.0181	35.74232
662.1733	32.3981
662.3286	32.42674
662.4839	39.01645
662.6391	29.82635
662.7944	30.25971
662.9496	34.71144
663.1048	33.43506
663.26	32.98523
663.4152	32.68044
663.5704	31.63333
663.7256	29.2233
663.8808	30.57137
664.036	30.42892
664.1912	34.26941
664.3463	36.51351
664.5015	24.67728
664.6566	30.92343
664.8118	35.49512
664.9669	36.48578
665.122	34.09866
665.2771	37.7798
665.4322	30.60626
665.5873	25.70322
665.7424	30.80874
665.8975	32.69564
666.0526	34.84255
666.2076	32.31591
666.3627	24.38841
666.5177	29.69561
666.6727	32.38882
666.8278	27.52318
666.9828	27.85961
667.1378	30.60107
667.2928	27.18826
667.4478	33.14972
667.6028	34.75904
667.7578	32.34227
667.9127	31.93158
668.0677	31.19347
668.2226	34.30154
668.3776	30.98941
668.5325	33.77145
668.6874	32.00534
668.8423	32.5909
668.9973	29.77312
669.1522	30.03206
669.3071	28.27677
669.4619	30.33338
669.6168	37.09015
669.7717	32.40131
669.9265	29.92319
670.0814	31.12112
670.2362	28.73368
670.3911	32.22044
670.5459	35.09284
670.7007	31.92834
670.8555	29.29883
671.0103	32.35006
671.1651	28.55548
671.3199	26.1499
671.4747	30.44263
671.6295	32.43114
671.7842	30.39734
671.939	30.64135
672.0937	29.51536
672.2484	29.12809
672.4031	26.3259
672.5579	24.11203
672.7126	32.31787
672.8673	28.11581
673.022	29.07313
673.1767	28.54219
673.3314	31.00889
673.486	27.66644
673.6407	27.10515
673.7953	27.96786
673.95	28.88092
674.1046	29.30603
674.2592	29.91378
674.4138	25.2115
674.5684	30.15556
674.723	32.17601
674.8776	33.24542
675.0322	31.88975
675.1868	30.35193
675.3414	28.85303
675.4959	32.16032
675.6505	23.63218
675.805	29.57525
675.9595	29.14943
676.1141	33.54862
676.2686	32.67094
676.4231	29.42152
676.5776	29.51727
676.7321	31.78171
676.8866	32.01902
677.041	29.60964
677.1955	30.85681
677.35	30.51711
677.5044	31.72656
677.6589	29.33529
677.8133	29.93329
677.9677	27.66768
678.1221	30.01501
678.2766	31.48063
678.4309	31.40986
678.5853	30.56618
678.7397	28.2496
678.8941	28.37087
679.0485	29.01336
679.2028	29.87194
679.3571	31.70118
679.5115	29.70392
679.6658	24.8507
679.8201	26.61378
679.9744	30.3327
680.1288	32.75602
680.2831	34.31509
680.4373	30.78849
680.5916	32.70297
680.7459	27.24085
680.9001	29.32073
681.0544	30.04691
681.2087	29.68643
681.3629	29.98984
681.5171	30.38299
681.6713	27.58808
681.8256	29.55984
681.9797	28.86306
682.134	31.44461
682.2881	28.57831
682.4423	25.26939
682.5965	26.979
682.7507	31.78415
682.9048	32.35272
683.059	29.07701
683.2131	27.02644
683.3672	27.48751
683.5213	23.98258
683.6754	29.84738
683.8295	30.2745
683.9836	32.81618
684.1377	30.75502
684.2918	30.68948
684.4459	31.94456
684.5999	33.3346
684.754	28.10514
684.908	29.1434
685.062	28.8363
685.2161	34.99234
685.3701	30.19144
685.5241	31.64915
685.6781	31.22554
685.8321	31.20575
685.9861	29.77625
686.14	24.09995
686.294	32.37675
686.4479	29.11898
686.6019	28.36786
686.7559	27.53712
686.9098	28.89619
687.0637	27.87747
687.2176	24.0505
687.3715	26.70953
687.5254	26.87858
687.6793	29.03362
687.8332	29.07502
687.9871	26.25612
688.1409	27.61209
688.2947	28.16699
688.4486	27.67495
688.6024	28.69394
688.7563	30.10545
688.9101	28.19801
689.0639	29.96021
689.2177	30.10264
689.3715	27.83024
689.5253	26.25208
689.6791	27.13181
689.8328	28.77717
689.9866	29.98665
690.1403	26.54564
690.2941	30.55194
690.4478	26.5134
690.6015	22.16733
690.7552	24.0054
690.9089	28.06203
691.0626	32.89218
691.2164	32.63224
691.37	23.97726
691.5237	24.63142
691.6774	30.66191
691.831	33.24426
691.9847	33.70329
692.1383	30.87779
692.2919	26.76185
692.4456	25.18699
692.5992	26.28581
692.7527	28.22905
692.9064	29.80906
693.0599	31.65007
693.2136	26.95157
693.3671	26.39669
693.5207	29.09365
693.6742	27.02711
693.8278	26.59756
693.9813	27.25074
694.1348	29.01232
694.2883	29.94527
694.4418	32.90745
694.5953	28.44103
694.7488	27.23097
694.9023	29.3324
695.0558	32.35027
695.2093	33.24917
695.3627	33.62396
695.5162	27.70511
695.6696	31.27219
695.8231	27.2278
695.9764	30.37265
696.1299	32.55579
696.2833	31.824
696.4367	33.13573
696.5901	32.9338
696.7435	27.54589
696.8968	28.25096
697.0502	29.11513
697.2036	31.95179
697.3569	37.52839
697.5102	32.46924
697.6635	28.65438
697.8168	28.79668
697.9702	35.0451
698.1235	29.27605
698.2768	27.85182
698.4301	31.2321
698.5833	26.84857
698.7366	34.47596
698.8898	32.7354
699.0431	30.54957
699.1964	31.81361
699.3495	30.31829
699.5028	34.9118
699.656	32.81783
699.8092	28.86667
699.9624	30.34041
700.1156	28.77967
700.2688	32.73475
700.4219	30.36266
700.5751	33.46693
700.7283	33.49925
700.8814	36.31411
701.0345	34.24979
701.1877	35.66994
701.3408	31.92168
701.4939	31.4348
701.647	28.75486
701.8001	31.73238
701.9532	37.64235
702.1063	37.33625
702.2593	36.99052
702.4124	32.69379
702.5654	32.89199
702.7184	34.13683
702.8715	33.63284
703.0245	35.63338
703.1776	35.08487
703.3305	36.20323
703.4835	35.45753
703.6365	35.81305
703.7895	35.67996
703.9424	38.77761
704.0954	40.28056
704.2484	38.92454
704.4013	37.28752
704.5543	42.66182
704.7072	41.73591
704.8601	45.30736
705.013	42.08403
705.1659	36.49208
705.3188	39.89521
705.4717	38.49278
705.6246	36.84433
705.7774	43.58129
705.9303	41.67953
706.0831	41.47895
706.236	39.91607
706.3888	45.08773
706.5416	42.29409
706.6944	44.12944
706.8472	43.33234
707	40.46174
707.1528	38.99108
707.3056	43.52889
707.4583	39.35383
707.6111	41.87446
707.7639	43.8532
707.9166	44.70431
708.0693	43.43793
708.222	42.181
708.3748	42.65628
708.5275	43.91573
708.6802	43.22467
708.8328	44.77238
708.9855	44.20517
709.1382	46.31043
709.2909	46.64252
709.4435	43.53522
709.5962	48.14852
709.7488	46.10972
709.9014	43.01996
710.054	43.52736
710.2067	43.10543
710.3593	47.38908
710.5118	48.52671
710.6644	49.00147
710.817	47.24295
710.9695	42.50119
711.1221	42.8451
711.2747	48.53014
711.4272	44.71142
711.5797	45.84078
711.7322	45.18766
711.8848	44.17407
712.0373	44.99309
712.1898	44.69983
712.3422	44.55867
712.4948	47.17548
712.6472	49.7786
712.7996	46.25822
712.9521	51.22656
713.1046	45.45646
713.257	45.95186
713.4094	45.00385
713.5618	48.50793
713.7142	45.10341
713.8666	42.9972
714.019	49.00111
714.1714	45.73981
714.3237	48.98633
714.4761	53.63033
714.6285	55.08581
714.7808	55.72381
714.9331	49.93021
715.0854	51.95754
715.2378	47.9451
715.3901	44.57689
715.5424	45.43643
715.6947	48.11372
715.8469	43.03417
715.9992	48.2582
716.1515	49.22218
716.3037	46.90191
716.456	46.97517
716.6082	49.34761
716.7604	50.82231
716.9127	49.3475
717.0649	52.28912
717.2171	48.21041
717.3693	47.58367
717.5214	45.88546
717.6736	40.08421
717.8258	44.50092
717.978	50.2552
718.1301	49.52123
718.2822	46.21442
718.4344	42.03134
718.5865	38.02092
718.7386	39.97511
718.8907	43.71582
719.0428	43.28458
719.1949	46.83953
719.3469	46.38119
719.499	45.40362
719.6511	50.91216
719.8031	48.35126
719.9551	47.43264
720.1072	47.14293
720.2592	47.40734
720.4112	48.23663
720.5632	46.83695
720.7152	50.91511
720.8672	51.16452
721.0192	55.59404
721.1711	51.58539
721.3231	53.67702
721.475	54.79551
721.627	48.15489
721.7789	55.49422
721.9308	56.64767
722.0828	61.8204
722.2347	56.16916
722.3866	60.5371
722.5385	55.24246
722.6903	59.25567
722.8422	58.38324
722.9941	54.55933
723.1459	52.56404
723.2977	48.10809
723.4496	56.82771
723.6014	54.473
723.7532	52.05172
723.905	58.65872
724.0568	54.39438
724.2086	54.42048
724.3604	56.61901
724.5121	51.71687
724.6639	49.76334
724.8157	57.86159
724.9674	59.80727
725.1191	54.01883
725.2709	54.78524
725.4226	57.71378
725.5743	52.91622
725.726	55.78191
725.8777	58.51601
726.0294	54.8595
726.181	55.68206
726.3327	56.13476
726.4844	56.03551
726.636	57.77668
726.7877	59.67059
726.9393	65.11216
727.0909	64.7297
727.2425	66.21346
727.3941	60.04339
727.5457	57.79585
727.6973	54.931
727.8488	54.98167
728.0004	56.89424
728.1519	57.57524
728.3035	65.65412
728.455	68.55933
728.6066	62.75755
728.7581	64.16812
728.9095	65.1069
729.0611	58.90519
729.2126	55.46418
729.364	59.55582
729.5155	68.12177
729.667	67.63136
729.8184	72.65124
729.9698	65.96636
730.1213	64.63476
730.2727	62.95926
730.4241	64.8119
730.5756	66.69121
730.7269	70.65045
730.8784	67.10823
731.0297	66.34022
731.1811	68.75062
731.3325	70.6048
731.4838	71.09203
731.6351	72.36135
731.7865	70.9381
731.9378	71.4901
732.0891	74.3392
732.2404	76.85674
732.3917	77.99363
732.543	80.89518
732.6943	70.51472
732.8456	75.89039
732.9968	83.50109
733.1481	79.58555
733.2993	77.43133
733.4506	74.08851
733.6018	78.88461
733.753	84.16953
733.9042	80.72771
734.0554	85.32335
734.2066	81.4543
734.3578	77.76207
734.509	84.61388
734.6602	84.01945
734.8113	81.23357
734.9624	79.70024
735.1136	80.04202
735.2647	74.56771
735.4158	82.90939
735.5669	80.07941
735.718	78.42163
735.8691	82.06332
736.0201	79.63672
736.1713	81.88201
736.3223	80.66834
736.4733	80.62035
736.6244	80.58495
736.7755	81.36172
736.9265	87.32153
737.0775	86.46698
737.2285	89.97514
737.3795	88.50365
737.5305	87.41538
737.6815	84.31038
737.8324	86.23837
737.9834	87.25368
738.1343	90.21912
738.2853	94.90532
738.4362	84.28275
738.5871	83.01788
738.738	85.49722
738.8889	89.0665
739.0399	85.59168
739.1907	87.03553
739.3416	86.64944
739.4925	94.4929
739.6433	94.21689
739.7942	95.48716
739.945	92.65365
740.0958	93.11375
740.2467	92.60622
740.3975	93.70647
740.5483	94.83095
740.6991	91.07133
740.8499	90.73891
741.0007	85.4623
741.1514	95.37095
741.3022	99.81351
741.4529	97.36761
741.6036	98.11245
741.7544	92.94073
741.9051	93.10864
742.0558	97.69213
742.2065	93.60268
742.3572	93.84485
742.5079	90.74648
742.6586	96.59798
742.8093	97.47656
742.9599	98.55128
743.1105	92.73312
743.2612	97.39335
743.4118	101.1827
743.5624	104.0658
743.7131	99.30662
743.8636	98.76601
744.0142	103.3281
744.1648	98.58054
744.3154	94.0162
744.4659	93.24276
744.6165	95.7916
744.767	92.57307
744.9176	94.25133
745.0681	95.01339
745.2186	102.0518
745.3691	96.20084
745.5197	98.50018
745.6702	101.3132
745.8206	101.7448
745.9711	99.34266
746.1215	101.8464
746.272	98.11497
746.4224	92.13388
746.5729	96.68079
746.7233	106.9317
746.8737	103.8483
747.0241	99.68975
747.1745	101.88
747.3249	97.43182
747.4753	101.0248
747.6257	99.10684
747.776	97.28963
747.9264	96.09575
748.0767	98.74653
748.2271	99.86926
748.3774	102.3115
748.5276	99.40166
748.678	95.32066
748.8282	99.45977
748.9786	102.1199
749.1288	101.6174
749.2791	102.9478
749.4294	99.56747
749.5796	102.2718
749.7299	99.49923
749.8801	98.85403
750.0303	98.99187
750.1805	100.917
750.3307	101.807
750.4809	99.66466
750.6311	98.2834
750.7813	94.55103
750.9314	97.81466
751.0816	98.44949
751.2318	100.4275
751.3818	97.82608
751.532	99.60588
751.6821	99.98276
751.8322	94.38029
751.9823	95.14405
752.1324	99.25876
752.2825	97.03831
752.4326	97.88421
752.5826	99.13808
752.7327	100.5259
752.8827	98.47884
753.0327	95.31557
753.1827	97.69175
753.3328	99.56216
753.4828	99.10661
753.6328	100.7325
753.7828	102.3776
753.9327	99.26791
754.0827	96.41764
754.2327	97.17305
754.3826	101.0436
754.5325	100.0538
754.6825	100.1038
754.8324	96.49764
754.9823	99.77728
755.1322	103.5569
755.2821	105.3519
755.432	100.7571
755.5818	102.4758
755.7318	95.61369
755.8816	98.22218
756.0314	98.64713
756.1813	100.0048
756.3311	95.32809
756.4809	95.16807
756.6307	95.53045
756.7805	94.09853
756.9303	96.67601
757.0801	89.78504
757.2299	88.22079
757.3796	88.35513
757.5294	96.25696
757.6791	98.91434
757.8289	94.56756
757.9786	94.86139
758.1283	93.86423
758.278	88.36848
758.4277	89.02772
758.5773	90.28854
758.7271	93.7444
758.8767	91.80791
759.0264	92.02766
759.176	91.09327
759.3256	79.63084
759.4753	67.19822
759.6249	48.27459
759.7745	41.81946
759.9241	32.81295
760.0737	31.54497
760.2233	26.3809
760.3729	25.83884
760.5224	25.42607
760.6719	26.1043
760.8215	28.67878
760.971	27.21445
761.1205	31.84301
761.2701	34.8378
761.4196	40.79207
761.5691	45.32998
761.7186	54.1268
761.868	61.87925
762.0175	68.37497
762.167	64.77814
762.3164	56.85734
762.4659	45.06836
762.6153	41.53526
762.7647	40.46695
762.9141	40.48799
763.0635	43.16357
763.2129	44.18133
763.3623	43.00215
763.5117	42.19999
763.661	42.99892
763.8104	50.69299
763.9597	50.29696
764.1091	45.21421
764.2584	48.6908
764.4077	55.75716
764.557	57.77647
764.7063	59.79984
764.8556	60.2175
765.0049	60.47219
765.1541	61.22294
765.3034	62.50245
765.4526	62.38644
765.6019	65.80785
765.7511	60.34504
765.9003	58.09178
766.0496	64.13401
766.1987	70.68412
766.348	70.60605
766.4971	69.42
766.6463	67.3187
766.7955	67.77117
766.9446	73.25079
767.0938	78.13915
767.2429	72.62215
767.392	71.90945
767.5411	73.70338
767.6902	73.40691
767.8394	75.95667
767.9884	73.93818
768.1375	78.45525
768.2866	73.40797
768.4356	79.47561
768.5847	81.08961
768.7337	80.64115
768.8828	81.43171
769.0317	78.00371
769.1808	77.61421
769.3298	75.95868
769.4788	79.3655
769.6277	79.41677
769.7767	76.96745
769.9257	72.4256
770.0746	77.18886
770.2236	79.08148
770.3725	82.48245
770.5214	83.2709
770.6703	82.27639
770.8193	79.45883
770.9681	76.85399
771.1171	77.39486
771.2659	76.9006
771.4148	76.53735
771.5637	76.70156
771.7125	78.41392
771.8613	74.45613
772.0101	83.43733
772.159	87.2168
772.3078	74.46716
772.4566	75.32053
772.6054	79.99309
772.7542	78.94662
772.903	74.49287
773.0517	76.87651
773.2004	81.03158
773.3492	77.85527
773.4979	76.09597
773.6467	71.88148
773.7953	76.61811
773.944	75.94779
774.0928	80.53466
774.2415	76.57007
774.3901	74.12314
774.5388	76.63116
774.6874	71.74986
774.8361	72.2337
774.9847	74.89953
775.1334	75.01062
775.282	71.61002
775.4305	75.76202
775.5792	73.15528
775.7277	70.47532
775.8763	77.18048
776.0249	78.06615
776.1735	73.94279
776.322	72.99458
776.4705	73.07696
776.6191	80.47413
776.7676	75.51693
776.9161	78.72659
777.0646	72.4081
777.2131	76.23233
777.3616	73.79457
777.5101	75.76382
777.6585	76.94569
777.8069	73.15832
777.9554	70.1317
778.1038	76.33462
778.2523	81.61332
778.4007	77.04482
778.5491	73.11426
778.6974	71.6512
778.8459	74.02746
778.9942	75.95107
779.1426	71.40874
779.291	73.20753
779.4393	74.57311
779.5876	70.57961
779.736	72.69994
779.8843	69.07523
780.0326	66.64679
780.1809	68.03401
780.3292	67.79739
780.4775	69.01782
780.6257	73.77609
780.774	70.88451
780.9222	74.60126
781.0704	71.36041
781.2187	67.44273
781.3669	65.22933
781.5151	69.36608
781.6633	77.30251
781.8115	73.56763
781.9597	76.89868
782.1078	67.81547
782.256	68.85104
782.4042	71.52431
782.5523	69.27397
782.7004	75.23682
782.8486	76.02972
782.9967	72.70647
783.1448	69.67563
783.2929	68.02213
783.441	72.74607
783.5891	71.07108
783.7371	68.33628
783.8851	72.15952
784.0332	70.31199
784.1812	67.24426
784.3293	69.5292
784.4773	63.33112
784.6253	68.08108
784.7733	70.4146
784.9213	72.17923
785.0692	69.86345
785.2172	68.56141
785.3652	61.94131
785.5131	65.72189
785.6611	66.66467
785.809	64.37733
785.9569	63.61243
786.1048	62.56514
786.2527	69.0824
786.4006	71.30877
786.5485	68.52546
786.6964	69.50519
786.8442	61.15347
786.9921	64.75356
787.1399	65.16776
787.2877	67.04633
787.4355	63.72385
787.5833	61.61888
787.7311	67.29974
787.8789	68.31695
788.0267	63.04939
788.1745	61.33442
788.3223	62.747
788.47	58.66585
788.6177	66.2142
788.7654	66.36572
788.9132	64.99765
789.0609	63.7679
789.2086	63.2573
789.3563	58.75523
789.504	59.33065
789.6517	64.92595
789.7993	63.26511
789.947	58.77948
790.0946	62.30252
790.2422	64.03684
790.3898	60.97589
790.5375	63.32274
790.6851	64.23835
790.8326	62.5666
790.9802	65.60403
791.1278	57.26887
791.2754	61.67204
791.423	65.92279
791.5705	56.1802
791.718	57.0134
791.8655	61.65254
792.0131	58.96622
792.1606	56.20217
792.308	62.55471
792.4556	62.31059
792.603	61.88768
792.7505	60.15037
792.8979	57.44118
793.0454	62.65633
793.1928	57.36899
793.3403	64.31335
793.4877	61.55008
793.6351	59.17644
793.7825	55.34021
793.9299	60.7855
794.0772	59.78688
794.2246	61.73311
794.3719	54.61364
794.5193	60.1546
794.6666	59.67682
794.814	55.91418
794.9613	54.6348
795.1086	59.07027
795.2559	58.6103
795.4032	59.106
795.5505	60.33875
795.6978	60.53996
795.845	62.18482
795.9922	63.15295
796.1395	59.00375
796.2867	62.60233
796.4339	57.52589
796.5811	55.59206
796.7283	57.55944
796.8755	57.19073
797.0227	57.31673
797.1699	57.86457
797.317	58.16651
797.4642	56.10781
797.6113	53.20873
797.7584	57.87961
797.9056	51.52496
798.0527	54.55681
798.1998	59.3875
798.3469	62.21489
798.494	57.24397
798.641	55.55087
798.7881	60.63382
798.9351	58.99023
799.0822	56.14336
799.2292	54.50669
799.3762	53.49295
799.5232	54.23062
799.6702	52.49652
799.8172	49.28453
799.9642	54.15208
800.1111	58.42769
800.2581	55.6982
800.4051	54.27232
800.552	53.48193
800.6989	56.41911
800.8458	54.43041
800.9927	51.3524
801.1396	49.71197
801.2866	50.61667
801.4334	51.29645
801.5803	51.15192
801.7272	56.96269
801.874	55.76975
802.0209	54.90676
802.1677	55.85338
802.3145	54.01455
802.4613	55.09589
802.6081	57.32149
802.7549	52.5447
802.9017	52.4436
803.0485	50.99247
803.1952	52.05415
803.342	51.3079
803.4887	48.64651
803.6354	50.2416
803.7822	53.32075
803.9289	55.17905
804.0756	49.69398
804.2223	45.80959
804.369	52.35968
804.5156	57.06186
804.6623	55.04237
804.8089	55.71057
804.9556	53.16186
805.1022	53.22356
805.2488	54.25703
805.3954	50.48649
805.542	49.48168
805.6886	51.23134
805.8352	51.45449
805.9818	52.35003
806.1283	51.95148
806.2749	54.97441
806.4214	52.36669
806.5679	54.86474
806.7145	52.35172
806.861	47.57659
807.0074	48.00282
807.154	52.94341
807.3004	55.30083
807.4469	51.22299
807.5934	49.54316
807.7398	51.02169
807.8862	43.88226
808.0327	45.51209
808.1791	50.45588
808.3255	50.97686
808.4719	44.45693
808.6183	49.16969
808.7647	56.48572
808.9111	49.13404
809.0574	47.14685
809.2037	46.95431
809.3501	45.5919
809.4965	44.51663
809.6428	46.61986
809.7891	43.55122
809.9354	45.665
810.0817	49.13827
810.2279	45.95209
810.3742	50.40361
810.5204	46.95606
810.6667	43.88941
810.8129	43.5969
810.9592	45.60369
811.1054	48.68304
811.2516	43.22552
811.3978	36.31794
811.5439	40.06218
811.6901	44.31989
811.8363	47.30745
811.9825	45.57853
812.1286	42.62764
812.2748	45.68025
812.4209	45.38896
812.567	43.88243
812.7131	40.4614
812.8592	45.86302
813.0053	44.09593
813.1514	39.07473
813.2974	39.47647
813.4435	37.8484
813.5895	41.17949
813.7356	40.88752
813.8816	38.46033
814.0276	41.07885
814.1736	37.77744
814.3196	36.62805
814.4656	42.20006
814.6116	39.06626
814.7576	33.69746
814.9035	33.16552
815.0494	37.4762
815.1954	37.55856
815.3413	36.37018
815.4872	34.85004
815.6331	37.45652
815.779	40.77327
815.9249	40.94275
816.0707	36.54514
816.2166	30.86947
816.3625	31.202
816.5083	28.93333
816.6542	27.20765
816.8	33.02242
816.9458	35.59495
817.0916	40.89059
817.2374	38.67841
817.3832	39.17857
817.5289	37.38175
817.6747	31.98421
817.8204	30.67163
817.9662	29.08836
818.1119	32.11354
818.2576	37.86427
818.4034	37.75932
818.5491	31.72365
818.6948	32.89772
818.8405	30.93877
818.9861	33.68084
819.1318	39.55105
819.2774	38.754
819.423	36.00872
819.5687	33.79932
819.7143	34.63559
819.8599	31.70411
820.0055	28.02492
820.1511	34.07888
820.2967	38.11473
820.4422	40.04605
820.5878	43.85644
820.7333	35.01142
820.8788	34.21374
821.0244	33.75385
821.1699	39.45794
821.3154	36.64974
821.4609	37.94604
821.6064	38.97229
821.7519	34.2839
821.8973	33.30053
822.0428	32.73957
822.1882	30.10922
822.3337	35.47039
822.4791	33.20844
822.6245	32.28449
822.7699	28.40745
822.9153	25.47778
823.0607	19.24051
823.2061	27.24873
823.3514	30.0754
823.4968	25.67846
823.6422	27.76586
823.7875	31.91268
823.9328	36.10453
824.0781	36.70815
824.2234	34.10689
824.3687	30.73096
824.514	30.4574
824.6592	36.03756
824.8045	38.79814
824.9498	35.68111
825.095	38.87054
825.2402	37.00406
825.3854	39.69336
825.5306	35.86948
825.6758	35.33514
825.821	31.304
825.9662	36.81308
826.1114	36.25375
826.2565	31.755
826.4017	31.43351
826.5468	39.13347
826.692	36.56216
826.837	35.10023
826.9822	34.31211
827.1273	35.39311
827.2723	32.06789
827.4174	31.0108
827.5625	34.5172
827.7075	31.34811
827.8526	26.58229
827.9976	28.00448
828.1426	34.14301
828.2877	36.342
828.4327	33.5519
828.5776	32.71636
828.7227	30.71885
828.8676	32.66185
829.0126	34.87182
829.1575	33.87556
829.3024	28.7941
829.4474	32.07256
829.5923	30.5807
829.7372	31.5332
829.8821	33.09113
830.027	32.26078
830.1719	29.12112
830.3168	26.77517
830.4616	28.44374
830.6064	33.37337
830.7513	29.89426
830.8961	34.97647
831.041	32.52151
831.1857	29.6607
831.3306	28.76733
831.4753	30.88872
831.6201	36.26327
831.7649	30.62011
831.9096	31.32606
832.0544	30.96881
832.1991	29.16622
832.3438	32.68651
832.4885	28.39707
832.6332	30.81145
832.778	33.72562
832.9226	30.28723
833.0673	28.77571
833.2119	29.50132
833.3566	33.42817
833.5012	29.951
833.6459	30.95844
833.7905	28.79622
833.9351	26.60069
834.0797	29.761
834.2243	30.88378
834.3688	32.73989
834.5134	30.6203
834.658	29.7258
834.8026	29.33963
834.9471	32.67724
835.0916	31.46784
835.2361	31.13924
835.3806	31.01557
835.5251	30.20911
835.6696	35.93494
835.8141	33.64949
835.9586	30.77406
836.103	32.71062
836.2474	31.75326
836.3918	31.24349
836.5363	32.55105
836.6807	30.49144
836.8251	34.12336
836.9695	31.14882
837.1138	30.9749
837.2582	30.28616
837.4026	33.77662
837.5469	28.76044
837.6913	25.8135
837.8356	30.78239
837.9799	28.55001
838.1242	26.77962
838.2686	30.60023
838.4128	28.75598
838.5571	28.28284
838.7014	29.29028
838.8456	34.74058
838.9899	31.72998
839.1341	29.5718
839.2783	25.28102
839.4225	27.96308
839.5667	32.88508
839.7109	32.63196
839.8551	33.40136
839.9993	29.3076
840.1434	31.03364
840.2876	33.10421
840.4317	27.8666
840.5759	30.14149
840.72	32.16041
840.8641	31.51553
841.0082	26.84248
841.1523	29.64317
841.2963	26.28273
841.4404	28.70928
841.5845	29.5725
841.7285	27.95858
841.8726	28.42021
842.0165	24.57896
842.1606	31.59882
842.3046	29.58358
842.4485	31.74464
842.5925	27.05597
842.7365	29.01302
842.8805	30.21934
843.0244	34.22231
843.1684	27.84677
843.3123	30.28549
843.4562	31.2684
843.6002	30.67795
843.744	32.15013
843.8879	29.0442
844.0318	33.33199
844.1757	31.52705
844.3195	31.81282
844.4634	31.77117
844.6072	28.60629
844.751	27.48702
844.8948	30.28419
845.0386	31.45366
845.1824	30.27939
845.3262	31.67425
845.47	24.96086
845.6138	29.49329
845.7575	24.24555
845.9012	26.88354
846.045	29.41109
846.1887	29.08615
846.3324	26.77594
846.4761	25.29541
846.6198	29.02752
846.7635	29.26796
846.9071	31.19326
847.0508	34.34146
847.1944	26.30192
847.3381	25.96972
847.4817	26.55622
847.6253	24.6155
847.7689	27.07915
847.9125	31.55389
848.0561	17.97881
848.1996	31.21523
848.3432	29.39732
848.4868	29.84824
848.6303	29.89498
848.7738	26.93203
848.9174	24.93656
849.0609	30.38874
849.2043	29.80766
849.3478	25.3408
849.4913	27.85305
849.6348	24.97214
849.7782	25.2006
849.9217	25.47424
850.0651	27.41858
850.2086	21.76724
850.3519	25.48513
850.4954	28.5128
850.6387	26.45868
850.7821	30.51392
850.9255	32.3369
851.0688	31.64112
851.2122	32.01721
851.3555	31.63874
851.4988	30.89898
851.6422	25.14857
851.7855	26.83
851.9288	23.88361
852.0721	23.20185
852.2153	25.20562
852.3586	24.75779
852.5018	28.71031
852.6451	29.18104
852.7883	29.68409
852.9315	27.68961
853.0748	26.43287
853.218	29.09888
853.3611	25.32923
853.5043	27.02983
853.6475	23.78108
853.7906	22.68534
853.9338	25.94744
854.0769	24.12099
854.22	18.47158
854.3632	15.55062
854.5063	17.71685
854.6494	20.53217
854.7924	20.23927
854.9355	22.28252
855.0786	28.35485
855.2216	28.50628
855.3647	26.09839
855.5077	27.55817
855.6507	24.85572
855.7937	24.09605
855.9367	29.91754
856.0797	27.87922
856.2227	27.06513
856.3657	23.92063
856.5086	26.68173
856.6516	29.08138
856.7945	24.46718
856.9374	25.41046
857.0803	24.08937
857.2232	28.4895
857.3661	27.66755
857.509	28.33118
857.6519	24.21848
857.7947	21.87365
857.9376	29.3087
858.0804	28.99672
858.2232	24.3283
858.366	26.44093
858.5089	26.27948
858.6516	29.52322
858.7944	27.40729
858.9372	23.13292
859.08	27.16544
859.2227	23.29818
859.3654	26.60034
859.5082	26.44406
859.6509	25.11385
859.7936	21.63181
859.9363	21.84167
860.079	23.50005
860.2217	29.65002
860.3643	29.12521
860.507	31.10897
860.6496	31.57037
860.7922	26.96785
860.9349	25.78842
861.0775	19.42597
861.2201	23.93651
861.3627	20.20078
861.5052	19.61413
861.6478	20.5886
861.7904	18.49126
861.9329	21.87366
862.0755	27.0272
862.218	19.5374
862.3605	23.51853
862.503	22.16327
862.6455	23.22539
862.788	23.35946
862.9305	22.98964
863.0729	26.09188
863.2154	22.11907
863.3578	23.16406
863.5002	20.97562
863.6426	19.43483
863.7851	21.4826
863.9275	23.3995
864.0698	18.45325
864.2122	23.96863
864.3546	23.73628
864.4969	24.0391
864.6393	25.41052
864.7816	23.16106
864.924	25.37208
865.0662	23.35241
865.2086	22.25511
865.3508	18.92534
865.4931	23.30429
865.6354	17.96903
865.7776	22.89654
865.9199	19.68492
866.0621	24.22713
866.2043	21.95729
866.3466	19.94824
866.4888	15.39197
866.6309	18.509
866.7731	21.54563
866.9153	24.01247
867.0574	24.0689
867.1996	23.10265
867.3417	19.33013
867.4839	18.36566
867.626	18.08375
867.7681	19.33496
867.9102	22.8134
868.0522	21.3008
868.1943	22.27312
868.3364	23.15483
868.4785	23.93487
868.6205	22.45866
868.7625	25.91464
868.9045	24.84264
869.0465	19.69563
869.1885	21.73641
869.3305	24.146
869.4725	22.40013
869.6144	23.57624
869.7564	22.31972
869.8983	23.49556
870.0403	21.85145
870.1822	24.82325
870.3241	22.8777
870.466	21.2905
870.6079	22.22844
870.7498	22.27733
870.8916	23.24057
871.0335	26.29786
871.1754	21.07568
871.3171	25.18854
871.459	19.09386
871.6008	20.83449
871.7426	21.90388
871.8844	23.58379
872.0262	19.16262
872.1679	22.08924
872.3097	18.75008
872.4514	16.8288
872.5931	20.31779
872.7349	21.99044
872.8766	22.1173
873.0183	24.60546
873.16	23.12884
873.3017	15.4414
873.4434	24.91344
873.585	21.94386
873.7266	17.25858
873.8683	18.53662
874.0099	21.03131
874.1516	21.7702
874.2932	19.01154
874.4348	14.49724
874.5763	17.50762
874.7179	18.38385
874.8594	17.13177
875.001	19.94999
875.1425	20.37556
875.2841	19.27204
875.4256	20.28411
875.5671	16.08464
875.7086	16.30011
875.85	17.27612
875.9915	17.96926
876.133	17.49203
876.2744	17.4981
876.4159	18.60135
876.5573	18.80047
876.6987	17.55448
876.8401	20.3101
876.9815	21.81959
877.1229	21.53773
877.2643	21.91213
877.4056	17.6098
877.547	19.23918
877.6884	13.86905
877.8297	16.83262
877.971	17.00427
878.1123	20.92192
878.2536	21.31658
878.3949	19.64573
878.5362	15.29329
878.6774	16.90706
878.8187	19.50488
878.9599	18.20394
879.1011	20.33483
879.2424	15.89325
879.3836	19.29984
879.5248	19.91085
879.666	20.48777
879.8071	15.57202
879.9483	20.83447
880.0895	16.44454
880.2306	16.21432
880.3718	18.11713
880.5129	17.89161
880.654	16.34816
880.7951	16.92936
880.9362	16.55925
881.0773	17.57815
881.2183	17.20536
881.3594	18.38749
881.5004	16.30001
881.6414	14.41594
881.7825	12.73773
881.9235	14.30001
882.0645	17.97597
882.2054	20.41179
882.3464	23.32884
882.4874	19.85431
882.6284	16.83392
882.7693	18.6809
882.9103	14.73512
883.0512	15.05901
883.1921	13.94537
883.333	15.96626
883.4739	16.14292
883.6147	13.26932
883.7556	14.75908
883.8965	14.09444
884.0374	17.30227
884.1782	14.63148
884.319	15.90895
884.4598	17.40003
884.6006	13.03281
884.7414	13.42535
884.8822	15.48761
885.0229	22.38185
885.1637	19.28296
885.3044	21.04025
885.4452	11.87063
885.5859	11.02222
885.7266	14.25669
885.8673	13.33546
886.008	14.39933
886.1487	17.06654
886.2894	17.57528
886.43	21.78665
886.5707	18.46399
886.7113	19.14357
886.8519	14.74565
886.9926	15.88856
887.1331	17.92745
887.2737	18.27507
887.4143	10.23258
887.5549	19.34291
887.6954	19.169
887.836	16.71542
887.9765	13.82868
888.1171	14.19566
888.2576	18.88608
888.3981	16.08248
888.5386	18.73567
888.679	16.96797
888.8195	16.39919
888.96	17.80877
889.1004	18.34694
889.2408	15.72951
889.3813	17.59961
889.5217	16.37187
889.6621	16.75128
889.8025	15.5669
889.9429	15.09198
890.0833	14.09428
890.2236	17.27429
890.364	19.49048
890.5043	19.01756
890.6446	16.69061
890.7849	11.1325
890.9252	15.0286
891.0655	20.7826
891.2058	15.4406
891.3461	12.945
891.4863	14.09321
891.6266	14.24664
891.7668	11.63142
891.907	13.77
892.0472	11.11405
892.1874	17.41039
892.3276	16.44119
892.4678	14.03522
892.608	13.15898
892.7481	14.90856
892.8883	13.69656
893.0284	14.27175
893.1685	11.25334
893.3087	13.55708
893.4487	13.39561
893.5889	14.45197
893.7289	10.90884
893.869	13.13737
894.009	14.72513
894.1491	13.9644
894.2891	14.08533
894.4291	14.23095
894.5692	13.3819
894.7092	15.35078
894.8491	11.41359
894.9891	10.81352
895.1291	14.01335
895.269	13.31127
895.409	11.90923
895.549	12.84118
895.6888	14.75471
895.8288	12.61051
895.9687	10.23824
896.1086	11.14248
896.2484	7.829802
896.3883	13.51126
896.5281	14.02403
896.668	7.841189
896.8079	11.03522
896.9476	11.59941
897.0875	12.17132
897.2272	13.78577
897.3671	9.873039
897.5068	11.68835
897.6466	9.775276
897.7864	11.18973
897.9261	9.939247
898.0658	8.703588
898.2056	8.712198
898.3453	10.68401
898.4849	11.74284
898.6246	9.805398
898.7643	10.84569
898.904	11.14141
899.0436	8.964196
899.1833	7.304151
899.3229	7.370876
899.4625	11.72673
899.6021	9.574092
899.7417	6.992815
899.8813	12.65818
900.0209	9.491458
900.1605	10.54583
900.3	11.4233
900.4395	10.87633
900.579	8.888079
900.7186	2.707337
900.8581	9.70602
900.9976	9.770373
901.1371	7.160478
901.2766	12.37253
901.416	10.94525
901.5555	9.022254
901.6949	4.760598
901.8344	14.06254
901.9738	14.01151
902.1132	13.38775
902.2526	9.28023
902.3919	9.277414
902.5313	11.88874
902.6707	9.39646
