SPECTRUM DATA FILE
SpectrumCount:	1
PixelCount:	3648
UserName:	ToughBook User
SampleName:	
LightSource:	
Comments:	
DeviceName:	Qwave
DeviceManufacturer:	Broadcom
DeviceSerialNo:	11311

Name:	last spectrum
Date:	2024-05-02T15:06:02.7764581+02:00
ExposureTime:	0.02
TemporalAvg:	1
IntensityUnit:	normalizedCounts
CCDLoadLevel:	0.03231981
Temperature:	28.38461
DiagramColor:	200
ProcessingSteps:	335

Wavelength [nm]	Intensity1
334.421	3.104406
334.5891	-0.5783047
334.7573	0.8751043
334.9254	-0.8262828
335.0935	2.871399
335.2616	4.451134
335.4297	-1.585764
335.5978	3.128395
335.7659	4.29002
335.934	1.5363
336.1021	-0.5582195
336.2701	1.440905
336.4382	2.043603
336.6063	2.948049
336.7744	1.801775
336.9424	-1.116191
337.1105	-1.428231
337.2785	7.447406
337.4466	0.3533717
337.6146	4.95903
337.7827	6.281434
337.9507	3.32361
338.1187	4.172607
338.2867	7.311454
338.4548	5.740504
338.6228	5.286467
338.7908	1.532969
338.9588	-0.5348208
339.1268	1.55512
339.2948	1.146272
339.4628	4.987319
339.6308	1.20119
339.7988	1.391224
339.9667	5.92079
340.1347	6.398304
340.3027	0.1626515
340.4707	7.152662
340.6386	7.336068
340.8066	4.835615
340.9745	2.923715
341.1425	4.734686
341.3104	3.404856
341.4784	5.812614
341.6463	5.891355
341.8142	4.696392
341.9821	0.7242463
342.1501	1.219093
342.318	2.627195
342.4859	5.031111
342.6538	5.037333
342.8217	4.473818
342.9896	5.131902
343.1575	1.121509
343.3254	1.961487
343.4933	0.5837013
343.6612	2.102037
343.829	3.324852
343.9969	2.910337
344.1648	0.946032
344.3326	3.783933
344.5005	9.138536
344.6683	5.208045
344.8362	5.203476
345.004	5.752656
345.1719	3.230963
345.3397	-1.51254
345.5075	4.61822
345.6754	4.200483
345.8432	4.971195
346.011	7.57288
346.1788	1.293668
346.3466	-1.59643
346.5144	3.140793
346.6822	2.162383
346.85	7.777533
347.0178	6.844585
347.1856	4.701026
347.3534	1.932755
347.5211	3.637983
347.6889	1.698297
347.8567	5.485821
348.0244	3.681666
348.1922	7.06439
348.3599	4.576159
348.5277	-0.8454199
348.6954	3.682048
348.8632	4.510556
349.0309	6.460066
349.1986	6.596732
349.3663	4.120777
349.5341	4.336508
349.7018	5.460401
349.8695	4.50463
350.0372	3.650049
350.2049	1.002965
350.3726	4.152527
350.5403	8.078859
350.7079	5.444186
350.8756	6.888247
351.0433	5.612322
351.211	5.900092
351.3786	3.901409
351.5463	3.411794
351.714	3.850736
351.8816	4.928625
352.0493	5.313124
352.2169	7.215855
352.3846	5.810249
352.5522	0.7656045
352.7198	6.547466
352.8875	7.232324
353.0551	5.489338
353.2227	1.789054
353.3903	3.945838
353.5579	7.931029
353.7255	10.35251
353.8931	0.3240039
354.0607	5.38796
354.2283	0.4034998
354.3958	3.430079
354.5634	4.355586
354.731	7.686527
354.8986	3.879939
355.0661	7.295814
355.2337	2.025947
355.4012	5.119936
355.5688	2.017721
355.7363	3.320327
355.9039	6.306186
356.0714	7.204239
356.239	4.352085
356.4065	4.254154
356.574	8.6591
356.7415	4.779915
356.909	7.927041
357.0765	3.854949
357.244	6.360538
357.4115	5.458728
357.579	5.204781
357.7465	2.270477
357.914	3.153478
358.0815	4.626372
358.249	2.358445
358.4164	6.723492
358.5839	6.217248
358.7513	4.553601
358.9188	3.704025
359.0862	-0.7353379
359.2537	3.656541
359.4211	6.736311
359.5886	7.045111
359.756	7.418069
359.9234	3.664086
360.0909	5.437818
360.2583	6.026797
360.4257	4.384039
360.5931	5.528963
360.7605	3.132812
360.9279	6.623638
361.0953	3.026747
361.2627	3.99284
361.4301	7.913814
361.5974	3.85667
361.7648	3.775945
361.9322	4.459984
362.0995	2.813291
362.2669	3.341027
362.4343	6.500638
362.6016	8.539731
362.769	4.815056
362.9363	8.793879
363.1036	4.585768
363.271	6.868301
363.4383	5.591618
363.6056	6.192386
363.7729	4.49981
363.9402	6.082017
364.1075	8.641893
364.2748	3.851852
364.4421	8.696152
364.6094	9.419933
364.7767	6.907307
364.944	6.089553
365.1113	6.935842
365.2786	4.54932
365.4458	3.165393
365.6131	8.719518
365.7803	4.778885
365.9476	3.740609
366.1148	5.70777
366.2821	8.10069
366.4493	6.903323
366.6166	4.347653
366.7838	7.077842
366.951	6.41289
367.1182	4.704499
367.2855	3.056179
367.4527	6.18048
367.6199	5.534857
367.7871	4.481802
367.9543	5.193536
368.1215	2.327688
368.2886	3.701038
368.4558	9.016167
368.623	8.693682
368.7902	5.669628
368.9573	7.493025
369.1245	10.47451
369.2917	6.876334
369.4588	5.91854
369.6259	9.214256
369.7931	7.178628
369.9602	6.159778
370.1274	6.831415
370.2945	7.400355
370.4616	10.06835
370.6287	4.382042
370.7958	3.56889
370.963	10.68751
371.1301	7.228543
371.2971	6.407253
371.4643	7.90302
371.6313	10.0552
371.7984	7.689045
371.9655	2.494121
372.1326	6.088118
372.2997	5.673923
372.4667	6.647404
372.6338	5.457823
372.8008	6.78125
372.9679	4.357841
373.1349	9.316051
373.3019	7.749638
373.469	3.250885
373.636	7.121224
373.803	7.745566
373.9701	1.824282
374.1371	-0.4175308
374.3041	5.128004
374.4711	5.840248
374.6381	-1.356292
374.8051	5.760506
374.9721	1.837652
375.1391	5.544542
375.3061	4.558518
375.473	5.807521
375.64	9.24635
375.8069	2.388297
375.9739	5.212857
376.1409	6.272316
376.3078	8.822891
376.4748	10.24149
376.6417	8.812159
376.8087	7.861617
376.9756	4.0995
377.1425	6.509321
377.3094	9.032727
377.4763	5.933165
377.6432	3.621355
377.8102	11.65433
377.9771	11.12312
378.144	8.195786
378.3109	11.7176
378.4777	7.890063
378.6446	6.072011
378.8115	8.084051
378.9784	6.297142
379.1452	9.397211
379.3121	6.126177
379.4789	8.135327
379.6458	6.127507
379.8127	3.496964
379.9795	2.315532
380.1463	8.435036
380.3131	8.284255
380.48	8.048927
380.6468	8.145628
380.8136	8.510812
380.9804	2.729096
381.1472	5.437067
381.314	6.419623
381.4808	5.910403
381.6476	5.412827
381.8144	10.74436
381.9812	10.49366
382.148	9.055536
382.3147	6.046717
382.4815	4.307216
382.6483	1.646283
382.815	3.115657
382.9818	5.915889
383.1485	6.463723
383.3153	9.67815
383.482	7.0049
383.6487	6.547648
383.8155	4.474267
383.9822	5.373323
384.1489	9.289718
384.3156	8.676293
384.4823	10.79121
384.649	5.284271
384.8157	6.466086
384.9824	3.818827
385.1491	6.259085
385.3158	11.31704
385.4825	11.60995
385.6491	7.593648
385.8158	4.37383
385.9825	9.578063
386.1491	7.195303
386.3157	8.545008
386.4824	10.32827
386.649	8.971943
386.8157	6.418651
386.9823	6.310661
387.1489	7.243738
387.3156	8.875738
387.4821	7.897918
387.6488	6.397742
387.8154	6.443539
387.982	13.21275
388.1486	8.17862
388.3152	7.677434
388.4818	9.140418
388.6483	10.90523
388.8149	10.57241
388.9815	4.292981
389.148	1.94041
389.3146	4.823635
389.4811	10.89523
389.6477	12.15307
389.8142	13.04451
389.9808	8.523447
390.1473	7.167902
390.3138	7.681845
390.4804	5.993588
390.6469	6.362485
390.8134	8.598207
390.9799	7.126268
391.1464	9.634453
391.3129	10.29551
391.4794	12.95562
391.6459	9.315661
391.8124	9.088192
391.9789	12.08696
392.1453	10.56881
392.3118	7.313829
392.4782	6.549729
392.6447	7.462912
392.8112	7.863224
392.9776	7.769293
393.144	4.645155
393.3105	5.931727
393.4769	5.59581
393.6433	7.745422
393.8098	5.392616
393.9762	8.081796
394.1426	9.448394
394.309	9.452979
394.4754	10.64823
394.6418	12.69425
394.8082	10.99789
394.9746	10.54261
395.141	7.311194
395.3073	10.8668
395.4737	12.86022
395.64	9.413087
395.8064	6.70907
395.9728	12.96486
396.1391	5.027833
396.3055	7.883733
396.4718	12.25492
396.6381	6.226032
396.8045	8.82493
396.9708	8.133655
397.1371	7.648183
397.3034	12.16537
397.4697	11.56935
397.636	12.50231
397.8023	12.28932
397.9686	5.093668
398.1349	8.328176
398.3012	13.79241
398.4675	18.47266
398.6337	14.40069
398.8	9.723444
398.9662	10.45243
399.1325	9.272282
399.2988	13.86062
399.465	10.11273
399.6313	13.82488
399.7975	13.08864
399.9637	7.893858
400.1299	11.88978
400.2961	12.47549
400.4624	13.29164
400.6286	12.78126
400.7948	12.09133
400.961	15.14231
401.1272	12.7325
401.2934	16.00015
401.4595	13.78072
401.6257	12.27328
401.7919	14.85003
401.9581	10.01229
402.1242	11.95263
402.2904	14.33903
402.4565	16.2517
402.6227	15.79546
402.7888	14.53636
402.955	9.815583
403.1211	11.5522
403.2872	12.22608
403.4533	9.578759
403.6194	7.061453
403.7856	14.08115
403.9517	14.03874
404.1177	13.9774
404.2838	14.4854
404.4499	12.25197
404.616	13.0281
404.7821	12.78148
404.9482	11.67272
405.1142	13.28239
405.2803	10.67967
405.4464	12.85526
405.6124	13.72626
405.7784	11.02713
405.9445	12.02518
406.1105	12.95537
406.2766	16.67912
406.4426	14.47824
406.6086	14.51542
406.7746	11.58353
406.9406	17.03401
407.1066	12.88049
407.2726	17.4604
407.4386	17.79337
407.6046	16.68502
407.7706	13.44838
407.9366	14.30637
408.1025	16.94694
408.2685	17.20239
408.4344	18.4065
408.6004	20.66439
408.7664	20.31011
408.9323	18.24817
409.0983	17.21822
409.2642	16.26009
409.4301	15.60383
409.596	14.7252
409.762	14.97625
409.9279	14.19314
410.0938	16.94802
410.2597	18.67766
410.4256	18.39559
410.5915	19.79323
410.7574	15.98023
410.9232	20.6154
411.0891	13.60902
411.255	15.16428
411.4209	17.02767
411.5867	19.94741
411.7526	15.94585
411.9184	18.96634
412.0843	17.60808
412.2501	17.444
412.4159	15.6177
412.5818	14.63562
412.7476	15.41167
412.9134	18.47346
413.0792	18.09826
413.245	16.15201
413.4108	21.96747
413.5766	19.35993
413.7424	20.71547
413.9082	17.70567
414.074	17.96313
414.2397	14.54035
414.4055	17.79577
414.5713	16.79594
414.737	18.42795
414.9028	13.66128
415.0685	19.94909
415.2343	20.85845
415.4	21.39454
415.5658	17.49991
415.7315	14.59578
415.8972	14.29884
416.0629	18.07764
416.2286	17.82199
416.3943	21.36991
416.56	18.30588
416.7257	15.77308
416.8914	17.59584
417.0571	19.02424
417.2228	19.30636
417.3884	16.0303
417.5541	15.40958
417.7198	21.57797
417.8854	20.041
418.0511	18.33899
418.2167	17.34126
418.3824	21.56749
418.548	18.94705
418.7136	16.40273
418.8792	18.46134
419.0449	18.95753
419.2105	18.63383
419.3761	22.63653
419.5417	21.85217
419.7073	19.52696
419.8729	19.89554
420.0385	23.21309
420.204	20.60197
420.3696	19.3996
420.5352	17.35165
420.7007	21.28192
420.8663	19.45378
421.0319	22.07747
421.1974	20.29697
421.3629	19.33982
421.5285	20.22241
421.694	24.85586
421.8595	26.09494
422.0251	24.02332
422.1906	24.08529
422.3561	22.48606
422.5216	21.20414
422.6871	18.85402
422.8526	20.71612
423.0181	21.14543
423.1835	20.92218
423.349	21.00413
423.5145	19.31771
423.68	21.73168
423.8454	25.41922
424.0109	22.69288
424.1763	28.08479
424.3418	26.34373
424.5072	21.413
424.6726	22.58543
424.838	17.09895
425.0035	20.76453
425.1689	24.09924
425.3343	29.72861
425.4997	26.25861
425.6651	25.10425
425.8305	27.39636
425.9959	25.14777
426.1613	20.98728
426.3267	22.3481
426.492	24.38546
426.6574	24.40442
426.8228	26.38958
426.9881	23.44333
427.1534	21.47927
427.3188	18.19142
427.4841	23.25734
427.6495	16.13001
427.8148	25.04071
427.9801	22.97767
428.1454	24.9128
428.3107	20.8482
428.476	22.69544
428.6414	21.99539
428.8066	23.23236
428.9719	25.57541
429.1372	23.3286
429.3025	22.26666
429.4678	24.5728
429.633	23.284
429.7983	26.13161
429.9636	18.23847
430.1288	16.80888
430.294	15.90336
430.4593	17.38416
430.6245	19.96046
430.7897	17.02708
430.955	19.7163
431.1202	25.13409
431.2854	20.17611
431.4506	25.25907
431.6158	27.24116
431.781	27.49712
431.9462	28.98385
432.1114	31.48305
432.2766	25.1825
432.4417	21.16695
432.6069	24.0772
432.772	26.3116
432.9372	27.0073
433.1024	26.49652
433.2675	25.74369
433.4326	25.618
433.5977	23.87926
433.7629	20.35732
433.928	19.58767
434.0931	21.05056
434.2582	19.14886
434.4233	23.0582
434.5884	28.99952
434.7535	24.02555
434.9186	25.24666
435.0837	31.07681
435.2488	31.22849
435.4138	29.10389
435.5789	29.46964
435.744	29.00696
435.909	26.50917
436.0741	28.01429
436.2391	26.55
436.4042	30.23334
436.5692	30.73417
436.7342	31.64406
436.8992	34.41404
437.0643	31.60629
437.2293	26.09126
437.3943	29.0529
437.5593	30.86381
437.7243	30.03984
437.8893	33.81345
438.0542	31.31176
438.2192	28.33551
438.3842	23.7741
438.5491	28.01061
438.7141	28.14882
438.8791	28.84241
439.044	31.14678
439.209	28.35698
439.3739	30.29432
439.5388	35.70568
439.7037	38.83652
439.8687	31.32516
440.0336	28.32141
440.1985	27.72875
440.3634	30.23895
440.5283	31.00121
440.6932	34.82957
440.8581	36.11612
441.0229	28.73421
441.1878	31.01391
441.3527	35.87697
441.5175	33.90533
441.6824	35.96467
441.8472	31.85913
442.0121	35.61201
442.1769	34.64578
442.3418	34.15478
442.5066	34.16632
442.6714	33.157
442.8362	37.2959
443.001	32.79184
443.1659	31.37681
443.3307	32.58429
443.4955	33.26233
443.6602	34.24018
443.825	38.56828
443.9898	43.43219
444.1546	33.7039
444.3193	36.95116
444.4841	39.60278
444.6488	37.20254
444.8136	39.65982
444.9783	39.72028
445.1431	33.35214
445.3078	33.92638
445.4725	29.59935
445.6372	33.49793
445.802	35.47534
445.9667	33.25241
446.1314	35.04311
446.2961	37.07949
446.4608	33.29382
446.6255	36.61909
446.7901	32.61304
446.9548	35.27893
447.1195	33.58948
447.2841	36.0057
447.4488	41.36322
447.6134	42.35653
447.7781	39.50127
447.9427	39.00686
448.1074	34.56062
448.272	33.72184
448.4366	35.68544
448.6012	33.49016
448.7658	41.02968
448.9305	42.52671
449.095	38.66431
449.2596	37.8831
449.4242	41.38109
449.5888	34.35433
449.7534	34.62291
449.9179	38.87432
450.0825	38.7959
450.2471	38.96354
450.4116	40.88878
450.5762	42.02054
450.7407	45.26898
450.9052	36.55784
451.0698	40.42919
451.2343	40.09711
451.3988	41.82701
451.5633	35.92833
451.7278	34.229
451.8923	38.52341
452.0568	37.58206
452.2213	40.94192
452.3858	38.36588
452.5503	39.03011
452.7148	34.24006
452.8792	34.14573
453.0437	37.67323
453.2081	35.1633
453.3726	42.07017
453.537	42.63952
453.7015	39.29262
453.8659	39.1823
454.0303	45.5481
454.1947	41.88933
454.3592	45.23633
454.5236	37.07885
454.688	38.5892
454.8524	41.0707
455.0168	34.42576
455.1811	38.07489
455.3455	40.6246
455.5099	43.01641
455.6743	45.6039
455.8386	40.32062
456.003	40.35695
456.1673	39.55731
456.3317	41.40339
456.496	43.72254
456.6603	37.29699
456.8246	45.81942
456.989	43.51506
457.1533	40.37627
457.3176	41.83164
457.4819	42.178
457.6462	40.80253
457.8105	41.4422
457.9748	40.00931
458.1391	43.44025
458.3033	36.46026
458.4676	39.47807
458.6319	40.89379
458.7961	46.22439
458.9604	48.80184
459.1246	45.0959
459.2888	43.37851
459.4531	44.99792
459.6173	44.2474
459.7815	43.60717
459.9457	42.15057
460.11	38.30391
460.2741	36.43639
460.4384	43.73661
460.6025	44.15453
460.7667	40.82101
460.9309	47.08001
461.0951	45.45355
461.2592	44.96313
461.4234	41.5145
461.5876	43.4772
461.7517	42.43959
461.9159	40.64774
462.08	40.52184
462.2441	40.78574
462.4082	44.26719
462.5724	44.24017
462.7365	45.04884
462.9006	40.32475
463.0647	40.50963
463.2288	46.99897
463.3929	45.30324
463.557	41.06233
463.721	42.79665
463.8851	42.75667
464.0492	44.3252
464.2132	42.82649
464.3773	41.17731
464.5414	41.48671
464.7054	42.8239
464.8694	39.95194
465.0334	40.25946
465.1975	42.03193
465.3615	46.08218
465.5255	43.41488
465.6895	41.75897
465.8535	42.41742
466.0175	45.36972
466.1815	49.60068
466.3455	43.54645
466.5095	44.9747
466.6734	43.53206
466.8374	45.41175
467.0014	42.37761
467.1653	45.56608
467.3293	45.16357
467.4932	44.53075
467.6571	45.47215
467.8211	44.87491
467.985	46.93504
468.1489	42.23365
468.3128	43.95976
468.4767	46.30746
468.6406	47.13661
468.8045	43.05365
468.9684	43.49517
469.1323	45.52976
469.2962	48.48506
469.46	46.23585
469.6239	42.50687
469.7878	42.82901
469.9516	44.20426
470.1154	43.87857
470.2793	41.47864
470.4431	38.73217
470.607	39.56494
470.7708	41.06195
470.9346	45.06354
471.0984	43.55831
471.2622	41.54588
471.426	39.87913
471.5898	43.61125
471.7536	47.47622
471.9174	49.98644
472.0811	48.72395
472.2449	44.16684
472.4087	45.91249
472.5724	45.44991
472.7362	49.23568
472.8999	46.9484
473.0637	45.81856
473.2274	43.03791
473.3911	44.30676
473.5548	51.08812
473.7185	52.65478
473.8822	47.41165
474.0459	46.15221
474.2096	43.04203
474.3733	45.74453
474.537	51.36301
474.7007	51.68195
474.8643	44.95535
475.028	41.0634
475.1917	48.3264
475.3553	48.26301
475.519	46.17028
475.6826	42.98129
475.8463	40.45548
476.0099	47.01679
476.1735	47.61755
476.3371	44.27456
476.5007	46.02862
476.6643	45.85814
476.8279	45.64612
476.9915	47.94936
477.1551	44.05753
477.3187	44.64905
477.4823	47.15783
477.6458	51.64753
477.8094	51.78865
477.9729	45.31476
478.1365	49.36201
478.3	47.27646
478.4636	46.68961
478.6271	45.36616
478.7906	43.71731
478.9541	42.95444
479.1176	47.91487
479.2812	48.06635
479.4447	50.55748
479.6082	53.2622
479.7716	43.45089
479.9351	43.44624
480.0986	45.03895
480.2621	49.86919
480.4255	45.70976
480.589	50.65809
480.7524	49.6419
480.9159	47.22426
481.0793	43.63987
481.2428	44.34261
481.4062	40.28751
481.5696	43.20565
481.733	47.11408
481.8964	51.15324
482.0598	47.56905
482.2232	46.01131
482.3866	51.30116
482.55	50.60925
482.7134	44.87247
482.8768	46.08194
483.0401	45.57455
483.2035	45.46214
483.3668	44.80839
483.5302	45.31681
483.6935	43.79554
483.8568	47.48444
484.0202	44.85559
484.1835	46.47849
484.3468	47.99521
484.5101	42.51744
484.6734	46.7897
484.8367	46.40818
485	43.5155
485.1633	44.59549
485.3266	47.27301
485.4899	44.73166
485.6531	43.07247
485.8164	43.79679
485.9796	41.85046
486.1429	36.27906
486.3061	40.64388
486.4694	39.40102
486.6326	41.13417
486.7958	44.47908
486.959	44.03214
487.1223	39.91944
487.2855	41.60162
487.4486	46.23399
487.6118	43.72773
487.775	49.07671
487.9382	47.60963
488.1014	43.94742
488.2646	50.41125
488.4277	46.19616
488.5909	41.57269
488.754	38.81433
488.9171	41.54833
489.0803	50.07442
489.2434	46.05686
489.4066	45.80568
489.5697	52.63884
489.7328	47.30355
489.8959	45.85175
490.059	51.39394
490.2221	48.1561
490.3852	49.58376
490.5482	48.77264
490.7113	52.69485
490.8744	49.95665
491.0374	46.68982
491.2005	47.45737
491.3636	54.1447
491.5266	49.94266
491.6896	48.3564
491.8527	48.14709
492.0157	46.15455
492.1787	42.11686
492.3417	43.44326
492.5047	46.99385
492.6677	45.10405
492.8307	50.81012
492.9937	52.96086
493.1567	52.48299
493.3196	51.78952
493.4826	48.95951
493.6456	46.55711
493.8085	43.88678
493.9715	47.44943
494.1344	47.92864
494.2974	49.33609
494.4603	46.32641
494.6232	47.12276
494.7861	51.14117
494.949	51.24781
495.1119	49.16265
495.2748	49.08237
495.4377	50.98457
495.6006	48.3484
495.7635	46.85683
495.9264	43.73902
496.0892	48.10829
496.2521	51.2716
496.4149	57.02657
496.5778	56.79185
496.7407	53.7225
496.9035	47.1151
497.0663	50.61474
497.2291	51.90147
497.3919	53.7498
497.5547	53.15056
497.7176	50.23726
497.8804	46.94209
498.0432	48.0585
498.2059	52.42418
498.3687	47.56279
498.5315	43.43012
498.6942	45.40555
498.857	49.66688
499.0198	53.18023
499.1825	48.28535
499.3452	52.13363
499.508	52.11242
499.6707	54.17062
499.8334	50.72369
499.9962	46.72462
500.1589	47.83953
500.3216	50.69224
500.4843	50.2789
500.6469	47.13564
500.8096	47.13306
500.9723	48.30428
501.135	47.78428
501.2976	47.3701
501.4603	45.33712
501.623	48.81454
501.7856	51.36926
501.9482	50.2233
502.1109	52.44449
502.2735	53.71727
502.4361	56.61306
502.5987	56.90924
502.7614	47.53386
502.924	52.0829
503.0865	51.91286
503.2491	53.29209
503.4117	54.98418
503.5743	49.87681
503.7368	52.83389
503.8994	51.46756
504.062	45.13831
504.2245	50.81134
504.3871	52.81897
504.5496	56.39847
504.7121	55.95662
504.8746	56.69565
505.0372	56.26714
505.1997	49.94983
505.3622	51.57799
505.5247	54.79497
505.6872	53.1472
505.8497	55.7375
506.0121	58.40469
506.1746	58.49046
506.3371	57.13656
506.4995	56.57419
506.662	52.29606
506.8244	50.87231
506.9869	59.66492
507.1493	58.94801
507.3117	55.76805
507.4742	57.57645
507.6366	59.51858
507.799	60.89923
507.9614	58.05732
508.1238	53.79267
508.2862	49.5623
508.4485	50.76496
508.6109	59.85574
508.7733	59.61033
508.9357	58.32422
509.098	56.89035
509.2604	59.14249
509.4227	64.85134
509.5851	62.08262
509.7474	60.06274
509.9097	59.13733
510.072	55.49149
510.2343	57.31231
510.3966	60.03817
510.5589	61.82474
510.7212	61.14558
510.8835	61.65845
511.0458	63.21252
511.2081	58.51981
511.3703	64.10484
511.5326	64.49386
511.6949	66.48211
511.8571	59.19153
512.0193	66.87543
512.1816	65.12428
512.3438	68.36983
512.506	64.2124
512.6682	59.38048
512.8304	61.01231
512.9926	57.60015
513.1548	58.84172
513.317	59.15486
513.4792	60.32292
513.6414	63.05294
513.8035	65.75722
513.9657	63.99889
514.1279	61.83087
514.29	61.39137
514.4521	60.35776
514.6143	66.2683
514.7764	67.09396
514.9385	60.16873
515.1006	65.44511
515.2628	64.1581
515.4249	63.88525
515.587	67.40742
515.7491	63.9091
515.9111	63.18062
516.0732	69.05925
516.2353	71.86759
516.3973	68.8311
516.5594	61.5405
516.7214	59.65187
516.8835	51.92824
517.0455	59.53424
517.2076	56.23867
517.3696	57.35924
517.5316	59.49978
517.6937	65.56057
517.8557	67.31266
518.0176	69.0303
518.1796	65.01733
518.3416	60.20825
518.5036	60.43256
518.6656	61.16337
518.8275	69.5993
518.9895	70.82671
519.1514	66.98421
519.3134	71.24792
519.4753	73.31242
519.6373	69.5916
519.7992	70.77441
519.9611	71.80733
520.123	79.17368
520.2849	73.03644
520.4468	75.36036
520.6087	72.61896
520.7706	70.2411
520.9325	73.67715
521.0944	70.42795
521.2562	77.78522
521.4181	78.01657
521.58	76.46384
521.7418	76.27114
521.9036	75.05914
522.0655	77.01124
522.2273	80.27908
522.3891	80.40917
522.551	79.37463
522.7128	77.80638
522.8746	74.771
523.0363	79.32202
523.1981	84.80653
523.3599	81.79311
523.5217	80.43325
523.6835	81.61202
523.8452	86.42075
524.007	86.5901
524.1687	84.77559
524.3304	85.45154
524.4922	88.86036
524.6539	85.87698
524.8157	90.1988
524.9774	84.48502
525.1391	85.84928
525.3008	86.08272
525.4625	84.55196
525.6241	85.81786
525.7858	91.58899
525.9475	94.75255
526.1092	91.53285
526.2709	86.10105
526.4325	81.54784
526.5942	86.31391
526.7558	85.24611
526.9174	82.89779
527.079	83.38871
527.2407	86.80345
527.4023	92.05949
527.5639	93.90209
527.7255	92.64926
527.8871	96.32531
528.0487	95.70434
528.2103	98.48495
528.3718	98.70839
528.5334	97.77716
528.695	99.82265
528.8565	100.5758
529.0181	105.6421
529.1796	102.8684
529.3412	98.43797
529.5027	100.4902
529.6642	102.0116
529.8257	100.1758
529.9872	100.074
530.1487	99.94923
530.3102	101.5698
530.4717	102.9289
530.6332	96.74887
530.7947	98.86494
530.9562	100.497
531.1176	110.4325
531.2791	109.3281
531.4405	107.652
531.6019	101.1359
531.7634	105.4039
531.9248	107.6652
532.0862	105.9574
532.2477	106.4141
532.4091	101.7651
532.5704	96.99684
532.7319	100.3783
532.8932	96.42744
533.0546	100.0271
533.216	104.1088
533.3774	99.20461
533.5388	102.801
533.7001	103.2159
533.8615	100.3647
534.0228	98.07362
534.1841	106.4271
534.3455	103.711
534.5068	108.4717
534.6681	110.3426
534.8293	99.28198
534.9907	104.3238
535.152	108.4274
535.3132	107.5365
535.4745	109.643
535.6358	110.0647
535.7971	112.1276
535.9583	109.7497
536.1196	110.6231
536.2808	105.5709
536.4421	108.1869
536.6033	105.5374
536.7645	98.88516
536.9258	102.6307
537.087	104.4177
537.2482	101.598
537.4094	100.7393
537.5706	111.2869
537.7318	108.4157
537.8929	106.3241
538.0541	106.2347
538.2153	109.5363
538.3764	110.6229
538.5376	110.4454
538.6987	113.9273
538.8599	111.27
539.021	113.5086
539.1821	112.553
539.3432	107.9663
539.5043	101.3773
539.6655	105.6481
539.8265	102.599
539.9876	106.2132
540.1487	109.5383
540.3098	110.335
540.4708	98.85043
540.6319	105.0135
540.793	102.4228
540.954	106.7327
541.1151	103.9204
541.2761	104.3823
541.4371	104.0162
541.5981	103.9615
541.7592	104.0736
541.9202	106.9392
542.0812	101.302
542.2422	98.80303
542.4031	101.554
542.5641	104.6776
542.7251	104.3884
542.886	108.2096
543.0471	104.7022
543.208	100.9432
543.369	100.6939
543.5298	105.5114
543.6908	108.3136
543.8517	110.8972
544.0126	109.187
544.1736	110.0575
544.3345	105.7344
544.4954	98.44585
544.6563	103.3349
544.8171	108.0788
544.978	108.1892
545.1389	106.2309
545.2997	111.9851
545.4606	110.1789
545.6215	105.1211
545.7823	102.3855
545.9432	104.1028
546.104	109.235
546.2648	114.4385
546.4256	109.4802
546.5864	108.6731
546.7473	103.6899
546.908	109.6124
547.0688	111.7449
547.2296	110.3969
547.3904	111.3918
547.5511	105.7428
547.7119	107.0127
547.8727	104.9038
548.0334	99.72937
548.1942	101.551
548.3549	105.2107
548.5156	105.2231
548.6763	110.2997
548.837	113.6226
548.9977	112.8941
549.1584	112.8785
549.3192	110.8418
549.4798	110.8203
549.6405	107.1605
549.8011	109.3744
549.9619	108.9272
550.1225	105.9894
550.2831	114.9467
550.4438	109.6891
550.6044	105.5632
550.765	105.228
550.9257	99.63775
551.0863	106.8728
551.2469	108.8838
551.4075	107.1314
551.5681	106.7685
551.7287	104.8415
551.8893	106.4434
552.0498	107.8669
552.2104	108.9441
552.371	108.4282
552.5315	105.9399
552.6921	105.2919
552.8526	112.3057
553.0131	106.7177
553.1736	107.0514
553.3342	107.8144
553.4947	111.1153
553.6552	111.8292
553.8157	104.0047
553.9762	110.4446
554.1367	107.6738
554.2971	107.2544
554.4576	109.8035
554.618	110.696
554.7785	108.6064
554.939	105.469
555.0994	105.8224
555.2598	110.0806
555.4203	105.6143
555.5807	102.818
555.7411	103.0025
555.9015	103.0534
556.0619	105.8994
556.2223	106.2988
556.3827	109.0292
556.5431	107.7951
556.7034	102.2727
556.8638	100.6193
557.0242	101.8116
557.1845	103.2816
557.3448	100.1399
557.5052	106.729
557.6655	101.1154
557.8259	102.0005
557.9861	101.805
558.1465	104.5534
558.3068	101.3143
558.467	106.0907
558.6274	97.16795
558.7877	93.14869
558.9479	92.8023
559.1082	95.40361
559.2684	96.52905
559.4287	100.9301
559.5889	99.84103
559.7491	101.7075
559.9094	100.0213
560.0696	101.5308
560.2299	99.25354
560.3901	102.0797
560.5502	96.01437
560.7104	95.145
560.8707	102.7105
561.0308	99.30225
561.191	103.2522
561.3511	95.60966
561.5114	91.51498
561.6714	89.97899
561.8316	94.02357
561.9918	94.6956
562.1519	100.0428
562.312	93.82589
562.4722	98.64209
562.6323	99.24689
562.7924	102.7779
562.9525	97.05501
563.1125	101.5805
563.2726	102.8862
563.4327	99.5802
563.5928	95.89398
563.7528	92.18578
563.9129	89.17712
564.0729	89.00473
564.233	86.05652
564.393	94.84909
564.553	97.28614
564.7131	98.64344
564.873	97.95983
565.0331	99.56417
565.1931	97.25619
565.353	96.64066
565.5131	92.01897
565.673	91.77847
565.833	93.91521
565.9929	90.41766
566.1529	87.80006
566.3129	89.0918
566.4728	85.15884
566.6328	88.9939
566.7927	86.4651
566.9526	87.8092
567.1125	89.61152
567.2724	87.30796
567.4323	88.25186
567.5922	87.20073
567.7521	82.78705
567.9119	84.9885
568.0718	86.30198
568.2317	88.06963
568.3915	88.42097
568.5514	82.51933
568.7112	85.76434
568.871	80.60348
569.0309	88.48531
569.1907	89.10484
569.3505	79.909
569.5103	86.20587
569.6701	86.55184
569.8299	84.89714
569.9897	80.92664
570.1495	84.13029
570.3092	80.38834
570.469	85.78664
570.6287	85.47022
570.7885	80.98975
570.9482	77.41658
571.108	78.29668
571.2677	79.62787
571.4274	79.60649
571.5871	78.12353
571.7468	76.95268
571.9066	78.21273
572.0662	83.90409
572.2259	85.13031
572.3856	80.47044
572.5452	81.90053
572.7049	79.50227
572.8646	75.86465
573.0242	84.60681
573.1838	80.1473
573.3435	79.13607
573.5031	82.4169
573.6627	77.51538
573.8223	76.10965
573.9819	80.48191
574.1415	78.29264
574.3011	79.20919
574.4607	76.81261
574.6203	77.80045
574.7798	81.86266
574.9394	72.87865
575.099	75.14793
575.2585	79.31025
575.418	74.20796
575.5776	74.79514
575.7371	74.77587
575.8966	73.67884
576.0562	72.87525
576.2156	69.33416
576.3751	76.59738
576.5346	77.4733
576.6941	76.37151
576.8536	73.80164
577.0131	78.34251
577.1725	78.86176
577.332	68.21955
577.4914	68.70776
577.6508	74.0729
577.8103	75.19833
577.9697	72.09011
578.1291	70.47882
578.2885	69.07827
578.4479	70.54951
578.6073	67.14505
578.7667	70.27078
578.9261	70.93916
579.0854	75.96635
579.2448	70.73526
579.4042	67.39523
579.5635	69.84961
579.7229	70.76499
579.8822	67.43732
580.0416	70.38817
580.2009	67.09508
580.3602	70.89272
580.5195	68.35652
580.6788	69.13287
580.8381	68.17513
580.9974	68.72775
581.1566	70.24819
581.3159	70.425
581.4752	68.03311
581.6345	74.15498
581.7937	74.79783
581.9529	71.54504
582.1122	70.54754
582.2714	71.01453
582.4306	69.66007
582.5898	70.53396
582.749	68.47783
582.9082	74.11235
583.0674	68.36264
583.2266	68.78616
583.3857	71.97648
583.5449	71.16211
583.7041	67.90031
583.8633	67.45483
584.0224	69.56326
584.1815	71.35574
584.3407	69.52268
584.4998	71.30091
584.6589	70.5103
584.818	63.8611
584.9771	62.89251
585.1362	69.48358
585.2953	65.44181
585.4544	64.48826
585.6135	61.36065
585.7725	62.84239
585.9316	67.43128
586.0906	66.1498
586.2497	65.88625
586.4087	61.23727
586.5677	64.62313
586.7267	62.53558
586.8858	60.51672
587.0448	63.19749
587.2038	63.89379
587.3628	62.82147
587.5218	63.30565
587.6807	64.85751
587.8397	65.51189
587.9987	60.92542
588.1577	59.95618
588.3166	62.90859
588.4755	57.84705
588.6345	58.6484
588.7934	59.67283
588.9523	59.15139
589.1112	58.14431
589.2701	54.71673
589.429	54.5154
589.5879	59.82329
589.7468	61.86142
589.9056	54.50361
590.0645	61.86031
590.2234	57.95536
590.3822	57.00969
590.5411	56.93745
590.6999	62.89342
590.8588	62.21645
591.0176	59.92343
591.1764	64.91106
591.3352	60.55851
591.494	61.81634
591.6528	64.13508
591.8116	61.35712
591.9703	59.81886
592.1291	62.47545
592.2878	64.07544
592.4467	61.17528
592.6053	59.07128
592.7641	63.44904
592.9229	63.37992
593.0816	61.48097
593.2403	61.15384
593.399	58.6194
593.5577	55.95955
593.7164	64.00182
593.8751	57.45068
594.0338	56.57637
594.1924	63.24555
594.3511	64.8293
594.5098	63.69273
594.6684	60.53821
594.8271	58.77841
594.9857	63.3957
595.1443	60.34722
595.303	56.39101
595.4615	59.47213
595.6202	59.06011
595.7787	61.94624
595.9374	61.47488
596.0959	55.45375
596.2545	62.28053
596.4131	58.49255
596.5717	59.52477
596.7302	60.64366
596.8887	58.13201
597.0473	61.06719
597.2058	61.64319
597.3644	58.85781
597.5229	55.41049
597.6814	56.57681
597.8399	59.29894
597.9984	55.71315
598.1569	55.6057
598.3154	60.14682
598.4738	57.52074
598.6323	55.50456
598.7908	57.0275
598.9492	60.1417
599.1076	62.61851
599.2661	58.10744
599.4245	58.52652
599.5829	55.9944
599.7413	58.97155
599.8997	60.4854
600.0581	63.14619
600.2165	57.38641
600.3749	54.40713
600.5333	61.639
600.6917	54.67894
600.85	56.48902
601.0084	56.83883
601.1667	55.878
601.325	54.51859
601.4833	58.54752
601.6417	56.19179
601.8	52.89482
601.9583	52.77866
602.1166	56.8556
602.2749	53.44284
602.4332	52.68643
602.5914	57.03037
602.7498	62.04751
602.908	59.61734
603.0662	57.68042
603.2245	60.03171
603.3828	57.92278
603.541	58.16299
603.6992	56.22895
603.8574	57.36127
604.0156	55.84308
604.1738	58.75349
604.332	59.05858
604.4902	53.47883
604.6484	52.98675
604.8065	52.04616
604.9647	54.39139
605.1229	61.22773
605.281	57.14497
605.4391	58.33182
605.5973	60.29664
605.7554	54.69461
605.9135	56.86091
606.0717	53.19194
606.2297	48.92802
606.3878	53.7114
606.5459	53.43542
606.704	53.82648
606.8621	51.46055
607.0201	58.56432
607.1782	57.60458
607.3362	56.13658
607.4943	57.47347
607.6523	50.37014
607.8104	49.89019
607.9684	54.60587
608.1264	53.70466
608.2844	52.56158
608.4424	52.30756
608.6003	57.43555
608.7584	50.2142
608.9163	51.57773
609.0743	54.62024
609.2322	55.19755
609.3902	54.28843
609.5482	54.30024
609.7061	53.12244
609.864	49.76089
610.0219	52.00687
610.1798	47.35295
610.3377	50.40542
610.4956	51.20886
610.6535	53.66303
610.8114	51.3826
610.9693	51.62008
611.1271	52.2332
611.285	48.88708
611.4429	51.95761
611.6007	59.50716
611.7585	57.24969
611.9164	53.03266
612.0742	52.39373
612.232	53.22126
612.3898	54.20186
612.5476	46.21658
612.7054	52.13259
612.8632	53.22842
613.0209	51.80251
613.1787	51.64514
613.3365	48.8294
613.4942	52.98938
613.652	54.65623
613.8097	50.97422
613.9674	49.46508
614.1252	48.10312
614.2829	45.23367
614.4406	53.44823
614.5983	45.91971
614.756	45.22057
614.9136	42.42337
615.0714	47.82177
615.229	47.80166
615.3867	49.3695
615.5443	46.74839
615.702	51.29901
615.8596	52.36157
616.0172	50.10001
616.1748	46.91564
616.3325	50.1427
616.4901	49.05265
616.6476	49.11403
616.8052	42.35767
616.9628	44.29176
617.1204	47.4533
617.278	46.51618
617.4355	51.14204
617.5931	47.19396
617.7506	47.68565
617.9081	47.76772
618.0657	49.92386
618.2232	47.55021
618.3807	46.63125
618.5382	49.93911
618.6957	46.19141
618.8532	45.9036
619.0107	45.79555
619.1682	44.40908
619.3256	43.50712
619.4831	47.62799
619.6406	50.10941
619.798	45.99203
619.9554	50.0046
620.1129	51.75526
620.2703	46.97754
620.4277	46.8681
620.5851	46.4976
620.7425	50.07841
620.8998	44.75819
621.0573	49.78463
621.2146	45.16138
621.372	44.9404
621.5294	41.33812
621.6867	41.9033
621.8441	48.40003
622.0013	42.9827
622.1587	47.40142
622.316	44.68481
622.4733	46.87594
622.6306	47.01377
622.7879	50.07993
622.9452	50.31044
623.1025	43.00527
623.2598	42.51987
623.4171	49.96869
623.5743	43.2068
623.7316	44.96321
623.8888	46.22419
624.046	44.84207
624.2032	44.63311
624.3605	44.84468
624.5176	43.54597
624.6749	43.05288
624.8321	39.98442
624.9893	39.04578
625.1464	46.4984
625.3036	42.28683
625.4608	38.2225
625.6179	39.10059
625.7751	41.8194
625.9322	39.98135
626.0894	41.84104
626.2465	44.68527
626.4036	47.61805
626.5607	47.01391
626.7178	45.50731
626.8749	43.41294
627.032	45.44997
627.189	48.78824
627.3461	43.66172
627.5032	45.66835
627.6602	48.39012
627.8173	41.59052
627.9743	39.03799
628.1313	42.84926
628.2884	44.02879
628.4454	44.14131
628.6024	42.85938
628.7594	44.19088
628.9164	45.8587
629.0734	42.96359
629.2303	44.4277
629.3873	42.73454
629.5443	45.32092
629.7012	42.50381
629.8582	43.53262
630.0151	44.66308
630.172	46.31637
630.3289	43.74008
630.4858	42.81564
630.6428	43.09145
630.7996	46.43685
630.9565	43.23753
631.1134	37.30186
631.2703	36.75479
631.4272	44.45757
631.584	38.95541
631.7408	42.33135
631.8977	44.94135
632.0546	47.09887
632.2114	47.37778
632.3682	45.20618
632.525	42.23913
632.6818	43.20501
632.8386	44.1309
632.9954	40.43734
633.1522	45.02242
633.3089	45.52233
633.4657	39.87352
633.6224	41.09015
633.7792	42.71298
633.9359	41.05387
634.0927	43.75775
634.2494	43.77629
634.4061	46.52818
634.5628	48.19173
634.7195	43.46404
634.8762	37.80208
635.0329	43.94044
635.1895	43.9385
635.3462	41.57594
635.5029	39.70215
635.6595	41.91904
635.8162	42.00041
635.9728	42.23763
636.1295	39.58507
636.2861	37.38471
636.4427	42.01195
636.5992	37.60319
636.7559	43.95495
636.9124	43.50569
637.069	44.53557
637.2256	42.73242
637.3821	37.48122
637.5387	43.25699
637.6953	46.66452
637.8518	42.66195
638.0084	40.10634
638.1649	44.09593
638.3214	43.77851
638.4779	36.70152
638.6344	41.66874
638.7909	44.76625
638.9474	36.43358
639.1038	44.16758
639.2603	40.8575
639.4167	42.42548
639.5732	41.55573
639.7297	38.90507
639.8861	39.26052
640.0425	43.37472
640.199	38.46778
640.3553	41.45913
640.5118	39.7754
640.6682	38.7149
640.8245	35.67284
640.981	40.74085
641.1373	39.03028
641.2936	40.83404
641.45	38.38196
641.6064	39.48606
641.7627	39.95911
641.9191	37.24387
642.0754	37.49741
642.2317	39.83671
642.388	40.17503
642.5443	45.31544
642.7006	42.51944
642.8569	38.51873
643.0131	39.84079
643.1694	41.99261
643.3257	43.72695
643.4819	41.98664
643.6382	37.01046
643.7944	31.9437
643.9506	35.91145
644.1069	33.88544
644.2631	34.26071
644.4193	36.14298
644.5754	38.25643
644.7316	37.11891
644.8878	36.80425
645.044	35.06529
645.2002	38.70255
645.3563	39.52185
645.5125	42.68152
645.6686	35.72425
645.8248	34.13819
645.9809	38.36092
646.137	34.99583
646.2931	33.75374
646.4492	38.03559
646.6053	37.42345
646.7614	36.35469
646.9174	34.92492
647.0735	35.69616
647.2296	35.82071
647.3856	37.1643
647.5417	37.84401
647.6977	42.08344
647.8537	38.10722
648.0098	39.28137
648.1658	37.96859
648.3218	33.46211
648.4777	34.35563
648.6337	35.57545
648.7897	36.06626
648.9457	33.12494
649.1016	32.11985
649.2576	35.91288
649.4135	34.72855
649.5695	38.30641
649.7254	39.36947
649.8813	27.56658
650.0372	34.58265
650.1932	36.94915
650.3491	35.00151
650.5049	34.01067
650.6608	31.2349
650.8167	32.05421
650.9725	34.51016
651.1284	38.83654
651.2842	34.36085
651.4401	32.10461
651.5959	34.89725
651.7518	34.70873
651.9076	34.84032
652.0634	35.31091
652.2192	34.8429
652.3749	31.30111
652.5308	37.5176
652.6865	37.43678
652.8423	30.45245
652.998	35.16866
653.1538	35.56271
653.3096	33.82567
653.4653	35.37811
653.621	31.82726
653.7767	30.63347
653.9324	32.44209
654.0881	34.66491
654.2438	36.6596
654.3995	36.99495
654.5552	37.16084
654.7109	34.14697
654.8665	30.79645
655.0222	33.51701
655.1778	31.20743
655.3334	36.94007
655.4891	28.75576
655.6447	33.92373
655.8003	29.94387
655.9559	32.20181
656.1115	33.87835
656.2671	30.90328
656.4227	34.86658
656.5782	30.3528
656.7338	27.32402
656.8893	29.95439
657.0449	30.95503
657.2004	32.01499
657.356	32.93008
657.5115	33.34661
657.667	31.42808
657.8225	31.02087
657.978	31.53083
658.1335	33.66854
658.289	34.65239
658.4445	37.68741
658.5999	34.79067
658.7554	34.79914
658.9108	32.56778
659.0663	32.80348
659.2217	32.83447
659.3771	30.55893
659.5325	32.20319
659.6879	33.31059
659.8433	29.92087
659.9987	34.06951
660.1541	34.3769
660.3095	34.47414
660.4648	35.83851
660.6202	34.84915
660.7756	33.968
660.9309	28.85127
661.0862	29.07838
661.2416	37.52783
661.3969	34.68199
661.5522	32.09296
661.7075	32.11979
661.8628	36.14418
662.0181	32.88102
662.1733	30.21017
662.3286	33.07206
662.4839	32.7161
662.6391	31.48838
662.7944	31.28081
662.9496	31.04139
663.1048	34.06597
663.26	32.14009
663.4152	31.23853
663.5704	32.41886
663.7256	31.68138
663.8808	37.30472
664.036	33.61958
664.1912	32.46025
664.3463	32.01322
664.5015	33.2969
664.6566	30.04886
664.8118	32.68684
664.9669	33.08145
665.122	29.79502
665.2771	30.76279
665.4322	34.42115
665.5873	39.50241
665.7424	28.00022
665.8975	28.23498
666.0526	33.27173
666.2076	31.86329
666.3627	27.75433
666.5177	30.93585
666.6727	28.23127
666.8278	33.28782
666.9828	33.16376
667.1378	30.74485
667.2928	32.00783
667.4478	32.09607
667.6028	29.87577
667.7578	32.29675
667.9127	36.762
668.0677	30.29395
668.2226	31.92477
668.3776	25.1226
668.5325	31.43579
668.6874	31.83681
668.8423	31.87602
668.9973	30.35914
669.1522	29.2317
669.3071	29.46177
669.4619	31.5822
669.6168	29.73475
669.7717	31.89282
669.9265	32.86384
670.0814	30.85045
670.2362	26.65582
670.3911	21.36238
670.5459	25.12153
670.7007	31.02077
670.8555	27.22213
671.0103	25.37296
671.1651	30.23956
671.3199	33.34293
671.4747	27.66051
671.6295	31.49307
671.7842	30.60433
671.939	28.42158
672.0937	31.16006
672.2484	32.63174
672.4031	30.31587
672.5579	24.19928
672.7126	29.5783
672.8673	30.00536
673.022	28.74222
673.1767	29.2387
673.3314	29.9478
673.486	25.67114
673.6407	32.50922
673.7953	26.22887
673.95	26.42787
674.1046	28.91829
674.2592	28.65949
674.4138	28.05101
674.5684	26.05552
674.723	26.15932
674.8776	32.2697
675.0322	30.02506
675.1868	24.86379
675.3414	29.2858
675.4959	27.01211
675.6505	28.68018
675.805	28.82882
675.9595	28.02746
676.1141	28.76695
676.2686	31.05623
676.4231	30.52118
676.5776	29.04924
676.7321	27.27016
676.8866	27.80383
677.041	34.77173
677.1955	33.55383
677.35	32.90239
677.5044	28.4416
677.6589	34.09702
677.8133	31.62684
677.9677	28.20272
678.1221	28.12711
678.2766	30.25085
678.4309	27.33189
678.5853	27.74964
678.7397	30.3916
678.8941	27.69021
679.0485	32.08126
679.2028	29.15109
679.3571	27.87581
679.5115	28.44563
679.6658	31.08279
679.8201	32.71342
679.9744	26.29639
680.1288	26.54778
680.2831	30.59965
680.4373	29.82587
680.5916	30.62794
680.7459	26.2236
680.9001	30.03149
681.0544	26.684
681.2087	26.65889
681.3629	25.77651
681.5171	22.80634
681.6713	30.24965
681.8256	27.87087
681.9797	28.6762
682.134	30.84197
682.2881	29.82106
682.4423	27.94282
682.5965	29.73896
682.7507	35.52664
682.9048	28.76172
683.059	31.7643
683.2131	27.36172
683.3672	28.82209
683.5213	33.39553
683.6754	29.86598
683.8295	32.55785
683.9836	27.18964
684.1377	27.46221
684.2918	25.94583
684.4459	24.21206
684.5999	26.83184
684.754	27.89183
684.908	28.32112
685.062	29.06661
685.2161	25.04306
685.3701	22.49566
685.5241	30.65888
685.6781	27.92519
685.8321	30.21357
685.9861	31.98987
686.14	28.2086
686.294	30.45867
686.4479	29.35077
686.6019	26.63102
686.7559	26.77344
686.9098	26.81079
687.0637	28.20948
687.2176	28.1029
687.3715	27.81528
687.5254	28.3095
687.6793	22.41633
687.8332	24.24402
687.9871	26.78757
688.1409	24.95896
688.2947	25.6943
688.4486	29.89521
688.6024	21.55354
688.7563	24.46788
688.9101	27.22676
689.0639	30.90777
689.2177	28.04762
689.3715	32.0267
689.5253	28.37826
689.6791	25.062
689.8328	25.63482
689.9866	27.16829
690.1403	23.45375
690.2941	31.88873
690.4478	27.44399
690.6015	26.32242
690.7552	28.11491
690.9089	22.86654
691.0626	24.02575
691.2164	27.33952
691.37	31.8607
691.5237	26.96253
691.6774	28.37955
691.831	28.95387
691.9847	29.99586
692.1383	30.57127
692.2919	29.08771
692.4456	30.79789
692.5992	28.47439
692.7527	31.31839
692.9064	32.26311
693.0599	23.83171
693.2136	27.95144
693.3671	27.42272
693.5207	27.60276
693.6742	29.88425
693.8278	26.7472
693.9813	31.14078
694.1348	29.96253
694.2883	24.03028
694.4418	25.19847
694.5953	34.47619
694.7488	33.47674
694.9023	30.79651
695.0558	29.72462
695.2093	37.20605
695.3627	31.48895
695.5162	29.08406
695.6696	30.38934
695.8231	30.99201
695.9764	34.84484
696.1299	36.02374
696.2833	37.80028
696.4367	36.28556
696.5901	30.05593
696.7435	37.61794
696.8968	29.80114
697.0502	29.79566
697.2036	32.87138
697.3569	31.94135
697.5102	33.09894
697.6635	29.2624
697.8168	36.68979
697.9702	37.245
698.1235	34.73523
698.2768	35.39612
698.4301	34.45647
698.5833	34.76961
698.7366	33.29777
698.8898	35.30733
699.0431	36.39952
699.1964	36.31317
699.3495	35.46706
699.5028	37.01832
699.656	39.15901
699.8092	40.4828
699.9624	37.38803
700.1156	37.51735
700.2688	36.98314
700.4219	39.15491
700.5751	40.31013
700.7283	38.80339
700.8814	39.44027
701.0345	43.94602
701.1877	43.67976
701.3408	42.11108
701.4939	35.99352
701.647	36.42944
701.8001	35.12252
701.9532	39.85779
702.1063	40.41005
702.2593	38.91623
702.4124	35.33687
702.5654	40.83374
702.7184	43.70366
702.8715	40.7423
703.0245	46.76086
703.1776	41.18587
703.3305	46.4964
703.4835	49.97564
703.6365	45.67847
703.7895	44.40493
703.9424	42.16234
704.0954	42.06103
704.2484	40.31419
704.4013	40.63228
704.5543	43.21802
704.7072	45.53267
704.8601	48.13179
705.013	43.31615
705.1659	44.11524
705.3188	48.29791
705.4717	47.78615
705.6246	47.95366
705.7774	47.40393
705.9303	46.07517
706.0831	49.62228
706.236	48.44332
706.3888	45.2222
706.5416	48.02898
706.6944	49.38861
706.8472	48.91752
707	45.61432
707.1528	49.46294
707.3056	47.6297
707.4583	49.89869
707.6111	49.32642
707.7639	45.21242
707.9166	49.02543
708.0693	51.79567
708.222	49.56608
708.3748	47.83227
708.5275	54.91155
708.6802	58.45677
708.8328	57.05577
708.9855	54.53038
709.1382	54.30606
709.2909	53.06651
709.4435	53.46487
709.5962	55.72046
709.7488	57.8339
709.9014	53.71295
710.054	51.67945
710.2067	54.22319
710.3593	51.9934
710.5118	53.53354
710.6644	51.65538
710.817	55.47145
710.9695	54.39375
711.1221	55.07718
711.2747	53.95853
711.4272	57.19966
711.5797	59.84457
711.7322	59.2024
711.8848	62.84842
712.0373	59.17723
712.1898	61.57784
712.3422	58.35859
712.4948	58.36828
712.6472	56.54445
712.7996	64.94076
712.9521	60.28616
713.1046	59.73058
713.257	60.09443
713.4094	58.68401
713.5618	66.28765
713.7142	65.82717
713.8666	65.82092
714.019	63.17343
714.1714	60.69258
714.3237	60.54592
714.4761	63.42839
714.6285	66.0091
714.7808	63.19017
714.9331	60.91995
715.0854	56.97179
715.2378	60.40366
715.3901	61.04846
715.5424	66.26424
715.6947	66.81173
715.8469	68.18581
715.9992	62.47928
716.1515	60.9197
716.3037	65.48221
716.456	66.66915
716.6082	59.47872
716.7604	62.4205
716.9127	60.40361
717.0649	58.04701
717.2171	54.76825
717.3693	60.94395
717.5214	59.86777
717.6736	60.77552
717.8258	58.77392
717.978	62.65117
718.1301	58.22686
718.2822	63.15439
718.4344	60.43652
718.5865	57.41509
718.7386	56.89674
718.8907	56.01736
719.0428	58.02566
719.1949	66.54561
719.3469	56.5906
719.499	51.48679
719.6511	62.33293
719.8031	62.83016
719.9551	58.7564
720.1072	54.81752
720.2592	64.5656
720.4112	57.65565
720.5632	57.44884
720.7152	66.08576
720.8672	67.24638
721.0192	69.1123
721.1711	73.39059
721.3231	75.83299
721.475	72.81367
721.627	68.81551
721.7789	69.75256
721.9308	77.60389
722.0828	77.33871
722.2347	76.97668
722.3866	75.93975
722.5385	82.27855
722.6903	79.10358
722.8422	80.03929
722.9941	78.56316
723.1459	74.3543
723.2977	69.77076
723.4496	66.8922
723.6014	65.91087
723.7532	71.31136
723.905	69.27218
724.0568	73.669
724.2086	71.89075
724.3604	71.44804
724.5121	71.35046
724.6639	80.60983
724.8157	78.92687
724.9674	78.24225
725.1191	74.00893
725.2709	70.49206
725.4226	67.7141
725.5743	69.53873
725.726	77.62883
725.8777	77.64766
726.0294	72.57623
726.181	79.26452
726.3327	84.33697
726.4844	77.9575
726.636	78.35187
726.7877	81.9281
726.9393	88.67558
727.0909	83.70438
727.2425	81.97015
727.3941	78.68871
727.5457	79.71787
727.6973	76.15569
727.8488	79.84882
728.0004	84.6943
728.1519	87.66869
728.3035	85.60732
728.455	86.51547
728.6066	84.78069
728.7581	85.49199
728.9095	81.80856
729.0611	77.91019
729.2126	80.49067
729.364	86.23987
729.5155	85.17744
729.667	96.1404
729.8184	93.58989
729.9698	96.45016
730.1213	91.7448
730.2727	85.31016
730.4241	90.70385
730.5756	89.6594
730.7269	89.72466
730.8784	95.64719
731.0297	96.49413
731.1811	92.95935
731.3325	93.65342
731.4838	93.97792
731.6351	101.3484
731.7865	95.88529
731.9378	94.02851
732.0891	103.4341
732.2404	101.7547
732.3917	105.2604
732.543	113.3091
732.6943	114.07
732.8456	106.1314
732.9968	104.9856
733.1481	109.6734
733.2993	111.4306
733.4506	106.3047
733.6018	114.8162
733.753	114.2952
733.9042	113.8273
734.0554	112.6538
734.2066	118.0142
734.3578	119.2454
734.509	120.7074
734.6602	117.8412
734.8113	119.0361
734.9624	114.996
735.1136	115.2999
735.2647	127.928
735.4158	122.6366
735.5669	116.604
735.718	118.506
735.8691	118.729
736.0201	117.7937
736.1713	117.8204
736.3223	117.8257
736.4733	119.1953
736.6244	124.4455
736.7755	124.0502
736.9265	123.1116
737.0775	126.8212
737.2285	124.1684
737.3795	126.963
737.5305	133.2539
737.6815	127.3811
737.8324	129.8228
737.9834	125.9749
738.1343	125.27
738.2853	124.6121
738.4362	123.7678
738.5871	120.0993
738.738	122.5615
738.8889	119.0698
739.0399	116.178
739.1907	121.9119
739.3416	133.9391
739.4925	130.9896
739.6433	131.4078
739.7942	130.2118
739.945	138.5621
740.0958	134.9248
740.2467	129.096
740.3975	138.5311
740.5483	141.0792
740.6991	135.2231
740.8499	132.4061
741.0007	133.1979
741.1514	130.6282
741.3022	130.1045
741.4529	135.4868
741.6036	135.263
741.7544	138.2918
741.9051	136.7592
742.0558	136.4057
742.2065	135.2373
742.3572	128.9978
742.5079	133.449
742.6586	136.6479
742.8093	137.0676
742.9599	140.9441
743.1105	135.5673
743.2612	144.9596
743.4118	145.6272
743.5624	145.7287
743.7131	150.0624
743.8636	143.5377
744.0142	140.2233
744.1648	142.8528
744.3154	137.4371
744.4659	141.6699
744.6165	146.5455
744.767	144.9965
744.9176	144.8278
745.0681	149.1549
745.2186	144.3453
745.3691	145.0913
745.5197	142.4871
745.6702	139.5572
745.8206	137.3882
745.9711	142.249
746.1215	149.6272
746.272	141.7961
746.4224	147.0176
746.5729	139.887
746.7233	143.9398
746.8737	147.7544
747.0241	148.9046
747.1745	143.9573
747.3249	142.5157
747.4753	146.5431
747.6257	141.1501
747.776	141.6245
747.9264	143.4612
748.0767	142.2942
748.2271	152.7415
748.3774	149.3077
748.5276	148.4995
748.678	146.703
748.8282	147.9222
748.9786	150.2283
749.1288	147.6797
749.2791	137.5278
749.4294	140.5432
749.5796	143.2623
749.7299	150.1416
749.8801	151.3908
750.0303	151.7399
750.1805	145.7748
750.3307	144.105
750.4809	151.4257
750.6311	145.6862
750.7813	138.6319
750.9314	146.3375
751.0816	144.1977
751.2318	140.8627
751.3818	145.784
751.532	142.3467
751.6821	141.5798
751.8322	146.7995
751.9823	143.7726
752.1324	147.1569
752.2825	146.0362
752.4326	138.6175
752.5826	141.6272
752.7327	146.2483
752.8827	145.0834
753.0327	148.5607
753.1827	147.3053
753.3328	146.3694
753.4828	145.8611
753.6328	142.8027
753.7828	142.9139
753.9327	149.4077
754.0827	141.79
754.2327	138.6167
754.3826	140.3826
754.5325	143.7393
754.6825	144.0428
754.8324	145.841
754.9823	143.325
755.1322	141.9982
755.2821	142.5098
755.432	139.6665
755.5818	140.2996
755.7318	141.851
755.8816	135.7425
756.0314	139.5441
756.1813	141.6987
756.3311	141.203
756.4809	146.1046
756.6307	140.1609
756.7805	136.865
756.9303	138.7479
757.0801	138.9645
757.2299	143.2637
757.3796	140.1299
757.5294	142.8751
757.6791	136.0403
757.8289	135.3851
757.9786	133.7923
758.1283	137.7558
758.278	135.6363
758.4277	138.0001
758.5773	138.1933
758.7271	131.8833
758.8767	128.8773
759.0264	128.9153
759.176	127.2256
759.3256	112.5969
759.4753	101.9067
759.6249	76.86417
759.7745	60.8321
759.9241	48.60061
760.0737	41.92299
760.2233	38.52686
760.3729	32.95145
760.5224	33.35472
760.6719	30.33163
760.8215	32.53129
760.971	36.49493
761.1205	39.21527
761.2701	46.41392
761.4196	52.15696
761.5691	60.8387
761.7186	71.06429
761.868	78.84396
762.0175	85.63163
762.167	86.98583
762.3164	72.2893
762.4659	67.30492
762.6153	61.83063
762.7647	65.43613
762.9141	62.01761
763.0635	58.26045
763.2129	57.14547
763.3623	60.91379
763.5117	60.09057
763.661	61.42228
763.8104	61.29213
763.9597	62.9818
764.1091	68.614
764.2584	67.72619
764.4077	64.57126
764.557	71.31321
764.7063	75.38518
764.8556	73.83234
765.0049	82.63622
765.1541	86.74563
765.3034	88.23903
765.4526	85.91423
765.6019	85.52872
765.7511	83.65591
765.9003	92.15216
766.0496	93.06129
766.1987	94.72036
766.348	92.00899
766.4971	100.6124
766.6463	105.8984
766.7955	104.4657
766.9446	106.4639
767.0938	109.6534
767.2429	106.8188
767.392	107.318
767.5411	109.7393
767.6902	108.2279
767.8394	112.2347
767.9884	112.3791
768.1375	117.4824
768.2866	113.6268
768.4356	110.0922
768.5847	116.7276
768.7337	115.0435
768.8828	111.9648
769.0317	106.733
769.1808	108.0218
769.3298	112.0374
769.4788	109.7195
769.6277	116.0832
769.7767	109.5813
769.9257	113.1898
770.0746	117.6905
770.2236	112.6973
770.3725	112.0539
770.5214	111.2639
770.6703	121.5374
770.8193	116.5932
770.9681	116.4657
771.1171	115.3738
771.2659	114.6082
771.4148	120.5018
771.5637	113.6809
771.7125	112.3884
771.8613	114.644
772.0101	114.7708
772.159	115.8475
772.3078	113.5335
772.4566	111.0424
772.6054	113.9482
772.7542	116.9844
772.903	109.9246
773.0517	118.1287
773.2004	114.4008
773.3492	113.6815
773.4979	113.7519
773.6467	111.0699
773.7953	110.0985
773.944	109.9595
774.0928	111.9069
774.2415	113.3027
774.3901	109.0903
774.5388	107.5609
774.6874	107.4458
774.8361	107.9301
774.9847	113.451
775.1334	110.4698
775.282	108.8839
775.4305	104.2167
775.5792	108.4295
775.7277	115.9293
775.8763	111.9605
776.0249	109.7278
776.1735	107.6415
776.322	103.8971
776.4705	105.5529
776.6191	105.832
776.7676	106.067
776.9161	113.5372
777.0646	115.2024
777.2131	107.1662
777.3616	113.8144
777.5101	106.7183
777.6585	110.4561
777.8069	112.1754
777.9554	102.5891
778.1038	105.9538
778.2523	108.9996
778.4007	108.6603
778.5491	108.0918
778.6974	104.6879
778.8459	103.6224
778.9942	100.5628
779.1426	100.4114
779.291	111.3106
779.4393	113.6546
779.5876	105.0999
779.736	103.9679
779.8843	108.4621
780.0326	104.569
780.1809	99.01678
780.3292	103.7615
780.4775	103.817
780.6257	103.3526
780.774	100.1988
780.9222	106.8786
781.0704	103.6709
781.2187	106.8269
781.3669	97.17071
781.5151	100.2916
781.6633	103.1923
781.8115	103.9876
781.9597	106.1049
782.1078	101.9863
782.256	95.97021
782.4042	104.4911
782.5523	108.1257
782.7004	103.8413
782.8486	99.07252
782.9967	105.1756
783.1448	99.4388
783.2929	97.90665
783.441	96.23163
783.5891	101.3158
783.7371	97.62096
783.8851	99.89801
784.0332	99.07764
784.1812	99.72927
784.3293	103.4033
784.4773	96.73523
784.6253	98.61344
784.7733	95.45837
784.9213	95.48163
785.0692	101.2104
785.2172	102.418
785.3652	98.65059
785.5131	99.20996
785.6611	94.62259
785.809	100.9657
785.9569	97.60542
786.1048	96.23336
786.2527	103.0297
786.4006	94.55797
786.5485	94.99279
786.6964	91.90133
786.8442	88.06982
786.9921	91.71191
787.1399	99.16142
787.2877	99.65474
787.4355	98.72712
787.5833	96.05724
787.7311	94.80701
787.8789	93.24314
788.0267	92.19118
788.1745	92.05958
788.3223	93.1529
788.47	89.65256
788.6177	91.21191
788.7654	97.08332
788.9132	92.31688
789.0609	96.26232
789.2086	94.07229
789.3563	91.21546
789.504	87.80325
789.6517	93.41408
789.7993	90.63404
789.947	91.06554
790.0946	88.00352
790.2422	95.87876
790.3898	88.52689
790.5375	87.38046
790.6851	91.99358
790.8326	86.54276
790.9802	87.36308
791.1278	85.91871
791.2754	91.88309
791.423	91.02638
791.5705	89.77841
791.718	87.91606
791.8655	84.56746
792.0131	92.16623
792.1606	90.34665
792.308	89.14884
792.4556	87.20016
792.603	86.17924
792.7505	89.72437
792.8979	87.20416
793.0454	83.70432
793.1928	83.90556
793.3403	84.85605
793.4877	87.17084
793.6351	89.29275
793.7825	84.44696
793.9299	84.16355
794.0772	84.23728
794.2246	85.7655
794.3719	79.00748
794.5193	82.79488
794.6666	80.44532
794.814	81.50914
794.9613	88.80783
795.1086	88.06157
795.2559	80.08622
795.4032	80.86275
795.5505	86.20264
795.6978	81.27414
795.845	82.30148
795.9922	88.19116
796.1395	80.32217
796.2867	77.5913
796.4339	80.90659
796.5811	84.93823
796.7283	83.69695
796.8755	81.75651
797.0227	77.72163
797.1699	85.26776
797.317	84.51911
797.4642	83.50966
797.6113	85.04409
797.7584	85.56393
797.9056	81.28463
798.0527	77.17295
798.1998	82.30571
798.3469	83.31147
798.494	86.85512
798.641	86.6824
798.7881	80.39681
798.9351	85.64755
799.0822	82.17284
799.2292	78.07832
799.3762	80.00996
799.5232	79.4908
799.6702	80.84337
799.8172	77.32246
799.9642	79.38249
800.1111	80.63051
800.2581	81.32931
800.4051	80.37095
800.552	84.84792
800.6989	80.45501
800.8458	77.83539
800.9927	79.15816
801.1396	74.62474
801.2866	80.18687
801.4334	80.35046
801.5803	78.32303
801.7272	76.08678
801.874	72.8419
802.0209	80.87564
802.1677	81.64443
802.3145	78.51039
802.4613	76.75346
802.6081	73.15638
802.7549	77.89663
802.9017	75.10104
803.0485	75.95952
803.1952	74.14089
803.342	76.66203
803.4887	79.74955
803.6354	76.74869
803.7822	74.72801
803.9289	74.98849
804.0756	78.17993
804.2223	74.22062
804.369	73.71194
804.5156	73.8344
804.6623	72.43526
804.8089	68.56847
804.9556	70.78025
805.1022	72.06875
805.2488	75.65101
805.3954	73.8978
805.542	74.67519
805.6886	74.60294
805.8352	71.24987
805.9818	73.01154
806.1283	72.23338
806.2749	77.67564
806.4214	72.99811
806.5679	71.89194
806.7145	72.38271
806.861	70.20438
807.0074	69.91704
807.154	75.76724
807.3004	76.84327
807.4469	67.02016
807.5934	70.08777
807.7398	72.36747
807.8862	72.54155
808.0327	77.18601
808.1791	75.02574
808.3255	74.11246
808.4719	64.31425
808.6183	66.17242
808.7647	64.96995
808.9111	63.79207
809.0574	69.15331
809.2037	73.3043
809.3501	72.33748
809.4965	62.36816
809.6428	61.93079
809.7891	67.71817
809.9354	64.49027
810.0817	66.25243
810.2279	63.4998
810.3742	71.96928
810.5204	67.23132
810.6667	66.33585
810.8129	63.65363
810.9592	68.59344
811.1054	64.69054
811.2516	67.8868
811.3978	66.58353
811.5439	62.53199
811.6901	59.04044
811.8363	65.27197
811.9825	64.35009
812.1286	60.78558
812.2748	65.49289
812.4209	65.39998
812.567	60.94191
812.7131	56.18178
812.8592	65.21308
813.0053	63.03771
813.1514	59.42938
813.2974	55.9165
813.4435	49.41023
813.5895	52.33763
813.7356	56.93123
813.8816	59.4388
814.0276	54.11349
814.1736	54.54452
814.3196	51.60949
814.4656	57.16152
814.6116	55.62812
814.7576	50.84604
814.9035	50.53563
815.0494	51.63464
815.1954	52.66277
815.3413	50.82053
815.4872	50.76292
815.6331	49.44423
815.779	52.32528
815.9249	55.42722
816.0707	48.53965
816.2166	49.46326
816.3625	46.72103
816.5083	43.29926
816.6542	43.0752
816.8	46.22087
816.9458	42.64428
817.0916	45.61283
817.2374	51.2922
817.3832	54.102
817.5289	53.61646
817.6747	49.68668
817.8204	43.57619
817.9662	37.08295
818.1119	40.8236
818.2576	48.11739
818.4034	48.21591
818.5491	45.69281
818.6948	49.32102
818.8405	49.74036
818.9861	52.85555
819.1318	47.60885
819.2774	46.68171
819.423	48.49952
819.5687	46.79514
819.7143	49.08065
819.8599	43.68051
820.0055	42.47906
820.1511	47.83562
820.2967	50.34631
820.4422	55.5311
820.5878	52.57036
820.7333	55.27638
820.8788	57.67177
821.0244	52.97692
821.1699	49.57191
821.3154	47.48307
821.4609	53.11023
821.6064	52.28801
821.7519	51.42685
821.8973	48.75829
822.0428	46.43832
822.1882	48.02592
822.3337	45.20126
822.4791	41.61302
822.6245	40.40847
822.7699	35.50228
822.9153	33.89503
823.0607	32.15567
823.2061	32.37465
823.3514	38.10926
823.4968	43.63891
823.6422	47.8996
823.7875	48.01269
823.9328	45.74894
824.0781	47.44438
824.2234	45.33645
824.3687	46.92839
824.514	50.22003
824.6592	53.53937
824.8045	52.81392
824.9498	55.70093
825.095	50.14409
825.2402	50.93021
825.3854	49.48601
825.5306	54.39315
825.6758	49.24746
825.821	47.72102
825.9662	45.3882
826.1114	45.17678
826.2565	47.75604
826.4017	48.33242
826.5468	45.89132
826.692	46.8993
826.837	50.24597
826.9822	49.0803
827.1273	50.13888
827.2723	47.33703
827.4174	45.57698
827.5625	40.31982
827.7075	43.58568
827.8526	41.68502
827.9976	42.52159
828.1426	43.23053
828.2877	40.7404
828.4327	42.70585
828.5776	49.31975
828.7227	48.36812
828.8676	39.66254
829.0126	38.55881
829.1575	42.83879
829.3024	45.87646
829.4474	41.63115
829.5923	42.42053
829.7372	41.18503
829.8821	45.32161
830.027	44.48199
830.1719	45.17543
830.3168	44.23348
830.4616	44.95498
830.6064	40.73336
830.7513	44.27142
830.8961	48.08526
831.041	42.5593
831.1857	43.04099
831.3306	46.59019
831.4753	43.31822
831.6201	40.65502
831.7649	44.47507
831.9096	43.6808
832.0544	38.91274
832.1991	44.53251
832.3438	40.65617
832.4885	42.86133
832.6332	43.8353
832.778	47.49409
832.9226	43.48793
833.0673	45.34992
833.2119	45.79396
833.3566	42.44915
833.5012	45.39052
833.6459	44.49271
833.7905	44.00975
833.9351	39.23244
834.0797	44.69098
834.2243	44.27295
834.3688	45.47873
834.5134	44.10888
834.658	46.23061
834.8026	44.77242
834.9471	46.35004
835.0916	42.28939
835.2361	44.25193
835.3806	43.56861
835.5251	43.21328
835.6696	46.91074
835.8141	48.75277
835.9586	45.64094
836.103	50.02193
836.2474	48.46146
836.3918	44.91969
836.5363	43.5528
836.6807	45.68327
836.8251	47.39238
836.9695	45.85656
837.1138	46.48534
837.2582	46.08195
837.4026	45.83944
837.5469	48.08386
837.6913	47.15622
837.8356	50.69181
837.9799	44.82626
838.1242	42.91575
838.2686	47.90599
838.4128	43.13707
838.5571	41.9282
838.7014	39.76878
838.8456	41.38531
838.9899	44.15707
839.1341	45.58913
839.2783	50.13947
839.4225	47.17247
839.5667	42.63168
839.7109	43.88642
839.8551	49.28735
839.9993	49.91204
840.1434	45.85992
840.2876	46.60464
840.4317	45.13491
840.5759	48.82439
840.72	48.92842
840.8641	45.61894
841.0082	39.91752
841.1523	42.42363
841.2963	42.9363
841.4404	43.3472
841.5845	44.09927
841.7285	46.81858
841.8726	45.48877
842.0165	41.71967
842.1606	45.2165
842.3046	43.3662
842.4485	44.01722
842.5925	45.90916
842.7365	43.73729
842.8805	45.69131
843.0244	42.90416
843.1684	41.56364
843.3123	40.43985
843.4562	41.32428
843.6002	39.32918
843.744	38.22024
843.8879	39.68386
844.0318	40.81172
844.1757	43.51155
844.3195	42.5076
844.4634	40.56563
844.6072	39.62201
844.751	40.21807
844.8948	42.16761
845.0386	41.6496
845.1824	41.62575
845.3262	39.34646
845.47	36.96841
845.6138	42.4505
845.7575	42.12498
845.9012	41.91467
846.045	41.14724
846.1887	47.44762
846.3324	48.02897
846.4761	39.01349
846.6198	44.92653
846.7635	39.74018
846.9071	41.72569
847.0508	40.10497
847.1944	42.10459
847.3381	41.99895
847.4817	40.48499
847.6253	44.07984
847.7689	38.4826
847.9125	35.97396
848.0561	38.05074
848.1996	40.96546
848.3432	41.77559
848.4868	38.30614
848.6303	44.47408
848.7738	45.91759
848.9174	36.68079
849.0609	43.34711
849.2043	38.95748
849.3478	40.02803
849.4913	41.03082
849.6348	35.60596
849.7782	32.71949
849.9217	32.72425
850.0651	31.19372
850.2086	38.09114
850.3519	36.6112
850.4954	36.74876
850.6387	36.81633
850.7821	40.97331
850.9255	36.45351
851.0688	36.48756
851.2122	37.55737
851.3555	36.31995
851.4988	36.56385
851.6422	39.91256
851.7855	33.3358
851.9288	41.03365
852.0721	39.97114
852.2153	40.56143
852.3586	42.09384
852.5018	38.45995
852.6451	38.92176
852.7883	39.03357
852.9315	41.73031
853.0748	39.62064
853.218	40.51507
853.3611	36.46581
853.5043	38.53981
853.6475	37.99441
853.7906	34.65724
853.9338	31.90084
854.0769	28.65773
854.22	26.37312
854.3632	25.72792
854.5063	27.93968
854.6494	27.33162
854.7924	32.08988
854.9355	37.58718
855.0786	35.35954
855.2216	36.49303
855.3647	38.92181
855.5077	37.2538
855.6507	37.27943
855.7937	33.25327
855.9367	35.51979
856.0797	39.67086
856.2227	35.9372
856.3657	38.40797
856.5086	35.68658
856.6516	38.00438
856.7945	42.33434
856.9374	39.83251
857.0803	39.20201
857.2232	34.21473
857.3661	38.34726
857.509	36.27004
857.6519	34.27567
857.7947	39.73671
857.9376	36.66081
858.0804	36.49353
858.2232	35.454
858.366	36.32994
858.5089	39.9607
858.6516	37.75032
858.7944	35.85944
858.9372	37.68887
859.08	37.24563
859.2227	39.27661
859.3654	36.5451
859.5082	33.5405
859.6509	34.04874
859.7936	30.95153
859.9363	38.49062
860.079	38.64737
860.2217	35.92206
860.3643	35.45576
860.507	35.99409
860.6496	38.66953
860.7922	36.02533
860.9349	34.45375
861.0775	34.74503
861.2201	33.43708
861.3627	34.91673
861.5052	30.79238
861.6478	33.33521
861.7904	33.84347
861.9329	33.56323
862.0755	33.08252
862.218	35.34023
862.3605	38.7233
862.503	33.43333
862.6455	27.62576
862.788	33.48705
862.9305	32.22209
863.0729	29.92798
863.2154	29.7411
863.3578	30.77542
863.5002	33.15438
863.6426	31.63923
863.7851	37.27377
863.9275	34.45511
864.0698	31.24732
864.2122	34.47803
864.3546	30.98559
864.4969	30.42118
864.6393	27.58202
864.7816	31.26116
864.924	37.16904
865.0662	32.86126
865.2086	31.76958
865.3508	31.2135
865.4931	36.50087
865.6354	30.2991
865.7776	26.95091
865.9199	29.22655
866.0621	25.29644
866.2043	22.46422
866.3466	26.49695
866.4888	26.7897
866.6309	31.53133
866.7731	26.27327
866.9153	28.74368
867.0574	30.01419
867.1996	27.7247
867.3417	31.40437
867.4839	28.36067
867.626	30.50781
867.7681	36.44322
867.9102	33.07534
868.0522	30.39257
868.1943	30.18561
868.3364	30.28133
868.4785	31.81698
868.6205	32.26815
868.7625	31.97382
868.9045	30.43772
869.0465	31.7806
869.1885	34.83648
869.3305	29.84891
869.4725	28.02903
869.6144	27.93772
869.7564	30.9394
869.8983	30.23889
870.0403	34.02977
870.1822	33.79245
870.3241	29.83307
870.466	28.28523
870.6079	26.25129
870.7498	25.59956
870.8916	27.89562
871.0335	29.78936
871.1754	29.90123
871.3171	33.40017
871.459	32.71382
871.6008	28.15292
871.7426	29.08642
871.8844	29.74533
872.0262	29.70172
872.1679	30.24091
872.3097	28.43601
872.4514	33.3182
872.5931	30.3501
872.7349	34.36562
872.8766	29.00358
873.0183	33.82646
873.16	31.51612
873.3017	30.33257
873.4434	31.22645
873.585	29.38158
873.7266	28.37864
873.8683	26.26877
874.0099	24.86074
874.1516	28.20246
874.2932	30.84568
874.4348	30.28171
874.5763	35.69269
874.7179	31.70282
874.8594	31.15248
875.001	26.33776
875.1425	28.80708
875.2841	23.71486
875.4256	26.1636
875.5671	25.96057
875.7086	26.0188
875.85	26.58517
875.9915	27.85704
876.133	31.02829
876.2744	27.68492
876.4159	29.56761
876.5573	28.51431
876.6987	25.80895
876.8401	28.21675
876.9815	26.30511
877.1229	27.41641
877.2643	30.00567
877.4056	24.18026
877.547	26.6121
877.6884	28.60294
877.8297	28.957
877.971	31.48221
878.1123	25.46671
878.2536	25.66476
878.3949	24.97189
878.5362	24.96879
878.6774	18.70781
878.8187	21.80285
878.9599	23.83992
879.1011	22.58324
879.2424	25.05709
879.3836	26.96943
879.5248	29.74334
879.666	22.12499
879.8071	24.599
879.9483	30.20906
880.0895	25.37338
880.2306	30.09216
880.3718	27.43973
880.5129	26.38786
880.654	19.76886
880.7951	23.99359
880.9362	24.34061
881.0773	25.2451
881.2183	27.76988
881.3594	25.79067
881.5004	22.57921
881.6414	25.1079
881.7825	26.68684
881.9235	26.61399
882.0645	24.78704
882.2054	24.57703
882.3464	23.94823
882.4874	26.27446
882.6284	20.26705
882.7693	26.95954
882.9103	23.32311
883.0512	23.66153
883.1921	27.92948
883.333	27.4758
883.4739	25.42435
883.6147	24.39864
883.7556	28.01847
883.8965	21.55219
884.0374	26.36142
884.1782	25.13221
884.319	25.94395
884.4598	28.72903
884.6006	24.10995
884.7414	22.34026
884.8822	19.38326
885.0229	23.64013
885.1637	23.37394
885.3044	24.30981
885.4452	23.63463
885.5859	26.50905
885.7266	26.44645
885.8673	23.66088
886.008	27.20712
886.1487	25.49048
886.2894	21.11769
886.43	23.61861
886.5707	24.66846
886.7113	21.23156
886.8519	23.49117
886.9926	22.98125
887.1331	22.28325
887.2737	23.53148
887.4143	23.392
887.5549	22.88431
887.6954	18.98652
887.836	21.6602
887.9765	22.33397
888.1171	25.72964
888.2576	22.27166
888.3981	20.93194
888.5386	23.82065
888.679	21.9376
888.8195	21.24243
888.96	24.32966
889.1004	22.68585
889.2408	24.09932
889.3813	24.19769
889.5217	24.25639
889.6621	26.47374
889.8025	25.33213
889.9429	19.90182
890.0833	19.80359
890.2236	19.20474
890.364	21.52176
890.5043	21.23114
890.6446	27.1667
890.7849	24.72114
890.9252	24.30534
891.0655	23.17235
891.2058	24.50331
891.3461	24.08064
891.4863	23.04791
891.6266	24.33107
891.7668	19.40329
891.907	20.62268
892.0472	20.2645
892.1874	22.26344
892.3276	23.39517
892.4678	22.22039
892.608	23.85546
892.7481	23.18684
892.8883	22.09567
893.0284	17.76317
893.1685	17.50183
893.3087	18.36386
893.4487	20.45365
893.5889	22.42857
893.7289	24.39325
893.869	22.13899
894.009	21.43192
894.1491	16.03269
894.2891	17.51139
894.4291	17.16177
894.5692	16.81876
894.7092	17.60792
894.8491	17.28205
894.9891	16.60486
895.1291	15.13834
895.269	19.48798
895.409	12.92029
895.549	17.28123
895.6888	19.33961
895.8288	17.83553
895.9687	17.11325
896.1086	13.72511
896.2484	12.66458
896.3883	15.17806
896.5281	14.24059
896.668	16.23936
896.8079	18.88669
896.9476	18.1403
897.0875	13.4187
897.2272	15.8757
897.3671	17.39475
897.5068	17.29967
897.6466	16.66222
897.7864	15.00967
897.9261	19.04567
898.0658	17.87846
898.2056	19.25367
898.3453	18.57203
898.4849	17.27044
898.6246	11.90154
898.7643	16.39861
898.904	10.17157
899.0436	8.861636
899.1833	7.864929
899.3229	9.195009
899.4625	19.48013
899.6021	17.93561
899.7417	18.60183
899.8813	18.10658
900.0209	14.24644
900.1605	13.21653
900.3	16.58028
900.4395	15.57972
900.579	19.52231
900.7186	12.7468
900.8581	10.43688
900.9976	14.49577
901.1371	13.66483
901.2766	13.03417
901.416	12.11525
901.5555	12.7392
901.6949	11.33707
901.8344	11.19336
901.9738	13.30919
902.1132	14.40273
902.2526	15.07546
902.3919	16.44966
902.5313	17.15817
902.6707	16.9368
