SPECTRUM DATA FILE
SpectrumCount:	1
PixelCount:	3648
UserName:	ToughBook User
SampleName:	
LightSource:	
Comments:	
DeviceName:	Qwave
DeviceManufacturer:	Broadcom
DeviceSerialNo:	11311

Name:	last spectrum
Date:	2024-05-02T14:49:50.7324943+02:00
ExposureTime:	0.02
TemporalAvg:	1
IntensityUnit:	normalizedCounts
CCDLoadLevel:	0.05389753
Temperature:	32.3692
DiagramColor:	200
ProcessingSteps:	335

Wavelength [nm]	Intensity1
334.421	18.72144
334.5891	18.43434
334.7573	24.95629
334.9254	22.9614
335.0935	27.05985
335.2616	20.40594
335.4297	21.29109
335.5978	26.68559
335.7659	21.45893
335.934	26.16394
336.1021	19.76818
336.2701	20.90011
336.4382	18.42561
336.6063	20.11357
336.7744	22.67945
336.9424	22.8412
337.1105	22.31327
337.2785	25.23879
337.4466	17.70625
337.6146	24.21281
337.7827	24.26475
337.9507	25.48846
338.1187	21.4499
338.2867	19.65909
338.4548	20.85886
338.6228	22.36671
338.7908	20.14483
338.9588	18.26608
339.1268	18.40678
339.2948	21.4939
339.4628	22.52195
339.6308	26.41797
339.7988	25.499
339.9667	22.10247
340.1347	22.08868
340.3027	21.37386
340.4707	24.56894
340.6386	26.225
340.8066	24.66025
340.9745	26.20452
341.1425	20.02929
341.3104	20.96358
341.4784	16.81754
341.6463	20.56693
341.8142	18.05185
341.9821	18.75943
342.1501	21.90296
342.318	18.88709
342.4859	21.56142
342.6538	20.43344
342.8217	26.72955
342.9896	23.66289
343.1575	19.7819
343.3254	20.6507
343.4933	25.03249
343.6612	26.33587
343.829	19.72218
343.9969	26.8993
344.1648	24.46409
344.3326	29.81131
344.5005	22.73658
344.6683	27.66704
344.8362	18.58704
345.004	21.42756
345.1719	24.13159
345.3397	23.80972
345.5075	27.68888
345.6754	24.81274
345.8432	22.04131
346.011	23.83366
346.1788	29.59577
346.3466	28.15607
346.5144	18.6764
346.6822	23.7921
346.85	25.65142
347.0178	26.29993
347.1856	25.95951
347.3534	27.42074
347.5211	23.71465
347.6889	23.82459
347.8567	22.92001
348.0244	24.61416
348.1922	26.00159
348.3599	23.10946
348.5277	22.86588
348.6954	24.2699
348.8632	27.09938
349.0309	24.91247
349.1986	20.08987
349.3663	21.77591
349.5341	20.65697
349.7018	18.85529
349.8695	22.23482
350.0372	29.84975
350.2049	29.23429
350.3726	26.17734
350.5403	23.57671
350.7079	23.01157
350.8756	24.23978
351.0433	22.62341
351.211	27.16156
351.3786	23.95552
351.5463	28.09453
351.714	25.61484
351.8816	26.47874
352.0493	23.35109
352.2169	22.3247
352.3846	21.44633
352.5522	26.42238
352.7198	27.14388
352.8875	27.85563
353.0551	24.46947
353.2227	28.37157
353.3903	27.30878
353.5579	24.58578
353.7255	24.45976
353.8931	23.93116
354.0607	32.47725
354.2283	28.16484
354.3958	24.67871
354.5634	30.55469
354.731	27.34293
354.8986	30.8035
355.0661	26.12436
355.2337	24.04028
355.4012	27.37423
355.5688	31.95111
355.7363	27.25375
355.9039	29.96969
356.0714	32.64817
356.239	29.58387
356.4065	30.63244
356.574	25.61346
356.7415	27.1942
356.909	28.22281
357.0765	27.0317
357.244	30.22596
357.4115	29.07435
357.579	25.89697
357.7465	25.59188
357.914	22.55591
358.0815	24.15329
358.249	26.17893
358.4164	23.31397
358.5839	22.13168
358.7513	23.53016
358.9188	26.05145
359.0862	27.54156
359.2537	27.35228
359.4211	29.63513
359.5886	28.90283
359.756	31.05498
359.9234	29.10537
360.0909	26.73036
360.2583	28.78609
360.4257	29.62195
360.5931	29.26406
360.7605	28.54353
360.9279	28.3469
361.0953	29.93603
361.2627	32.65496
361.4301	29.56141
361.5974	26.51291
361.7648	23.58684
361.9322	29.21073
362.0995	28.58813
362.2669	26.02852
362.4343	28.92384
362.6016	33.11239
362.769	30.46716
362.9363	30.68802
363.1036	29.00436
363.271	29.88396
363.4383	30.55458
363.6056	28.01555
363.7729	31.69808
363.9402	28.43941
364.1075	25.64829
364.2748	27.57303
364.4421	31.01275
364.6094	31.07877
364.7767	28.6226
364.944	33.25897
365.1113	32.30592
365.2786	32.55525
365.4458	31.83625
365.6131	32.56947
365.7803	34.30167
365.9476	32.5413
366.1148	30.04231
366.2821	32.51104
366.4493	30.58817
366.6166	28.44713
366.7838	25.12489
366.951	33.45436
367.1182	36.25326
367.2855	39.83442
367.4527	34.57951
367.6199	33.62813
367.7871	31.23268
367.9543	36.14157
368.1215	35.63813
368.2886	35.64003
368.4558	30.65898
368.623	29.10882
368.7902	29.39716
368.9573	33.3779
369.1245	33.24773
369.2917	39.49281
369.4588	31.57249
369.6259	35.37093
369.7931	33.93866
369.9602	34.17087
370.1274	40.30139
370.2945	33.02284
370.4616	30.36337
370.6287	29.18432
370.7958	32.32827
370.963	31.0069
371.1301	38.35825
371.2971	38.81529
371.4643	39.36585
371.6313	38.34566
371.7984	36.47934
371.9655	36.49845
372.1326	31.76152
372.2997	36.93304
372.4667	38.46842
372.6338	37.51508
372.8008	32.81131
372.9679	29.64526
373.1349	40.33269
373.3019	37.1568
373.469	35.79848
373.636	31.92315
373.803	37.24567
373.9701	40.60003
374.1371	38.01432
374.3041	35.85954
374.4711	34.14288
374.6381	30.26047
374.8051	32.59692
374.9721	36.12782
375.1391	40.8819
375.3061	38.61266
375.473	41.95478
375.64	39.18631
375.8069	39.23992
375.9739	44.10012
376.1409	39.56833
376.3078	41.33335
376.4748	44.50209
376.6417	38.82824
376.8087	37.74265
376.9756	44.37124
377.1425	37.31721
377.3094	43.50305
377.4763	42.65231
377.6432	42.57628
377.8102	41.07141
377.9771	40.82714
378.144	46.31814
378.3109	44.34393
378.4777	38.83647
378.6446	34.21936
378.8115	41.22075
378.9784	42.94248
379.1452	37.66169
379.3121	39.22467
379.4789	36.40291
379.6458	35.99224
379.8127	35.42899
379.9795	36.15538
380.1463	39.38404
380.3131	43.1983
380.48	41.43387
380.6468	40.67804
380.8136	39.57062
380.9804	40.76931
381.1472	45.76316
381.314	45.25035
381.4808	38.23205
381.6476	40.08022
381.8144	35.88892
381.9812	37.02225
382.148	38.35748
382.3147	38.79205
382.4815	35.49173
382.6483	35.38443
382.815	34.52205
382.9818	31.55199
383.1485	33.04624
383.3153	34.54026
383.482	34.44064
383.6487	36.84492
383.8155	37.96534
383.9822	40.52512
384.1489	40.47558
384.3156	43.34277
384.4823	42.57795
384.649	42.49397
384.8157	40.57501
384.9824	40.19254
385.1491	46.97943
385.3158	44.04341
385.4825	46.95721
385.6491	45.32463
385.8158	43.85944
385.9825	42.70797
386.1491	44.06262
386.3157	47.06059
386.4824	43.63239
386.649	44.71352
386.8157	44.78118
386.9823	40.50155
387.1489	47.5202
387.3156	49.81033
387.4821	45.54663
387.6488	45.85818
387.8154	42.61579
387.982	44.95974
388.1486	47.54691
388.3152	42.08386
388.4818	39.99781
388.6483	42.32979
388.8149	45.21403
388.9815	46.93955
389.148	49.97981
389.3146	47.8106
389.4811	48.75124
389.6477	51.4416
389.8142	56.96643
389.9808	49.30247
390.1473	43.72366
390.3138	48.41467
390.4804	46.95642
390.6469	48.58612
390.8134	48.68022
390.9799	49.4837
391.1464	51.47403
391.3129	50.32179
391.4794	50.86577
391.6459	54.16024
391.8124	53.18959
391.9789	50.96354
392.1453	45.5885
392.3118	47.70223
392.4782	47.05164
392.6447	48.25343
392.8112	42.04425
392.9776	39.2518
393.144	32.50259
393.3105	33.71313
393.4769	32.06279
393.6433	34.6826
393.8098	38.68225
393.9762	43.89615
394.1426	46.22328
394.309	47.91295
394.4754	48.66026
394.6418	53.09285
394.8082	51.26892
394.9746	65.45464
395.141	57.15707
395.3073	57.33883
395.4737	60.426
395.64	60.33808
395.8064	56.83185
395.9728	56.81757
396.1391	53.67912
396.3055	47.69232
396.4718	44.14872
396.6381	40.35105
396.8045	44.74357
396.9708	44.10712
397.1371	46.29804
397.3034	48.07292
397.4697	52.43413
397.636	54.11333
397.8023	62.63018
397.9686	58.85183
398.1349	63.68318
398.3012	63.59313
398.4675	63.58143
398.6337	66.83801
398.8	62.49063
398.9662	64.02478
399.1325	64.46095
399.2988	69.49743
399.465	68.3618
399.6313	64.1909
399.7975	62.14685
399.9637	69.96282
400.1299	68.98302
400.2961	70.49688
400.4624	66.24683
400.6286	68.40412
400.7948	66.7327
400.961	72.36649
401.1272	67.58634
401.2934	66.69534
401.4595	68.40039
401.6257	65.84647
401.7919	64.03342
401.9581	67.53405
402.1242	71.66411
402.2904	72.65283
402.4565	71.08519
402.6227	71.76594
402.7888	72.80293
402.955	68.09971
403.1211	63.70962
403.2872	67.86923
403.4533	68.37422
403.6194	69.30482
403.7856	74.25309
403.9517	73.73667
404.1177	70.94062
404.2838	71.61448
404.4499	66.15665
404.616	63.6096
404.7821	67.97123
404.9482	72.30235
405.1142	77.53626
405.2803	73.3157
405.4464	70.593
405.6124	70.62753
405.7784	67.77747
405.9445	72.66615
406.1105	73.43575
406.2766	71.43787
406.4426	71.78409
406.6086	67.16856
406.7746	74.2087
406.9406	75.78356
407.1066	71.44559
407.2726	67.12907
407.4386	73.51641
407.6046	76.86366
407.7706	74.23943
407.9366	77.64345
408.1025	82.40753
408.2685	76.32978
408.4344	85.17387
408.6004	80.07334
408.7664	81.29729
408.9323	85.08781
409.0983	85.81574
409.2642	82.21657
409.4301	82.96616
409.596	83.13511
409.762	77.36426
409.9279	73.34131
410.0938	65.99368
410.2597	67.01344
410.4256	75.80916
410.5915	82.5899
410.7574	86.54008
410.9232	89.41132
411.0891	86.7749
411.255	80.13223
411.4209	85.69427
411.5867	82.57733
411.7526	87.94756
411.9184	89.61174
412.0843	88.53378
412.2501	96.34037
412.4159	87.27429
412.5818	88.4513
412.7476	86.88425
412.9134	86.6442
413.0792	85.34422
413.245	84.23054
413.4108	88.12429
413.5766	87.08636
413.7424	87.00692
413.9082	87.26097
414.074	85.61333
414.2397	83.6544
414.4055	77.80252
414.5713	88.08326
414.737	86.42409
414.9028	88.62013
415.0685	82.40374
415.2343	87.0724
415.4	87.29858
415.5658	89.49116
415.7315	88.31078
415.8972	90.61628
416.0629	88.74451
416.2286	90.11628
416.3943	92.14497
416.56	87.38609
416.7257	83.74477
416.8914	86.00247
417.0571	80.58931
417.2228	81.15137
417.3884	78.72548
417.5541	76.44016
417.7198	85.27323
417.8854	82.44995
418.0511	86.07314
418.2167	88.02984
418.3824	81.09799
418.548	83.8068
418.7136	86.58333
418.8792	83.74737
419.0449	87.25674
419.2105	89.0979
419.3761	90.6579
419.5417	92.64423
419.7073	84.93453
419.8729	83.75855
420.0385	87.08575
420.204	83.75884
420.3696	88.04657
420.5352	87.87436
420.7007	90.38939
420.8663	97.09521
421.0319	98.61387
421.1974	97.20831
421.3629	98.00712
421.5285	92.48604
421.694	98.43893
421.8595	97.48402
422.0251	97.1284
422.1906	93.8102
422.3561	91.28413
422.5216	86.56461
422.6871	81.63603
422.8526	85.76271
423.0181	89.71721
423.1835	100.3795
423.349	101.8312
423.5145	96.38776
423.68	96.03555
423.8454	94.80048
424.0109	101.7911
424.1763	99.83962
424.3418	104.1024
424.5072	99.37283
424.6726	99.68534
424.838	91.82766
425.0035	95.09229
425.1689	99.99259
425.3343	98.44277
425.4997	98.92872
425.6651	100.9696
425.8305	105.0501
425.9959	96.40125
426.1613	89.58142
426.3267	96.96104
426.492	106.0697
426.6574	105.6306
426.8228	103.9674
426.9881	99.03848
427.1534	87.62389
427.3188	90.9313
427.4841	96.90945
427.6495	96.3568
427.8148	98.15043
427.9801	102.6472
428.1454	102.7225
428.3107	99.92851
428.476	102.1482
428.6414	102.5051
428.8066	96.64193
428.9719	91.35738
429.1372	100.3439
429.3025	96.3381
429.4678	98.48213
429.633	91.20553
429.7983	89.20811
429.9636	84.40136
430.1288	82.31564
430.294	88.29198
430.4593	91.75097
430.6245	88.37846
430.7897	87.26577
430.955	86.72123
431.1202	89.12141
431.2854	89.80161
431.4506	93.45144
431.6158	104.1013
431.781	107.8593
431.9462	113.3752
432.1114	105.5451
432.2766	96.54536
432.4417	95.69783
432.6069	90.16921
432.772	97.49516
432.9372	103.7568
433.1024	110.5384
433.2675	110.3458
433.4326	109.6265
433.5977	106.4141
433.7629	102.2617
433.928	96.64934
434.0931	90.60503
434.2582	91.23868
434.4233	100.5057
434.5884	109.1276
434.7535	112.7902
434.9186	117.8002
435.0837	116.2005
435.2488	108.5823
435.4138	106.9621
435.5789	111.5055
435.744	111.3641
435.909	115.9517
436.0741	123.0463
436.2391	127.7324
436.4042	123.8719
436.5692	121.8572
436.7342	127.0806
436.8992	119.1373
437.0643	116.9944
437.2293	114.6516
437.3943	113.5084
437.5593	114.5222
437.7243	118.6022
437.8893	124.2241
438.0542	121.5128
438.2192	108.9211
438.3842	100.1219
438.5491	106.5587
438.7141	111.4291
438.8791	108.4088
439.044	117.2275
439.209	124.8699
439.3739	117.3547
439.5388	120.6132
439.7037	123.6041
439.8687	121.9666
440.0336	128.9034
440.1985	123.1935
440.3634	115.654
440.5283	118.223
440.6932	123.6042
440.8581	122.35
441.0229	126.9961
441.1878	134.7655
441.3527	134.1761
441.5175	128.6066
441.6824	126.3507
441.8472	134.8044
442.0121	136.694
442.1769	123.2498
442.3418	124.7324
442.5066	125.9407
442.6714	131.811
442.8362	125.9739
443.001	134.7088
443.1659	126.4917
443.3307	126.8033
443.4955	130.7392
443.6602	131.7726
443.825	132.2075
443.9898	129.5713
444.1546	127.7685
444.3193	126.4918
444.4841	133.7234
444.6488	135.0745
444.8136	135.0956
444.9783	130.699
445.1431	136.2743
445.3078	129.7849
445.4725	122.8463
445.6372	126.9509
445.802	125.9215
445.9667	127.836
446.1314	125.8335
446.2961	127.3235
446.4608	127.4088
446.6255	127.0523
446.7901	130.1212
446.9548	126.8506
447.1195	129.1194
447.2841	134.7981
447.4488	139.102
447.6134	140.8547
447.7781	145.2875
447.9427	141.9185
448.1074	131.5828
448.272	133.8362
448.4366	137.3875
448.6012	141.8879
448.7658	138.8462
448.9305	138.399
449.095	141.0612
449.2596	140.8541
449.4242	142.7544
449.5888	136.7176
449.7534	138.7039
449.9179	146.4319
450.0825	145.8518
450.2471	144.0737
450.4116	144.3204
450.5762	149.9943
450.7407	149.5354
450.9052	150.9277
451.0698	149.6643
451.2343	154.1674
451.3988	143.9978
451.5633	144.8007
451.7278	146.6482
451.8923	149.4375
452.0568	144.9425
452.2213	151.8113
452.3858	144.8448
452.5503	141.3647
452.7148	148.7275
452.8792	137.978
453.0437	139.2843
453.2081	141.908
453.3726	139.7037
453.537	140.4402
453.7015	148.7297
453.8659	157.6317
454.0303	152.885
454.1947	147.1844
454.3592	153.7324
454.5236	152.6813
454.688	153.1111
454.8524	144.9801
455.0168	139.7352
455.1811	145.7191
455.3455	156.9358
455.5099	149.5299
455.6743	152.3093
455.8386	162.553
456.003	161.9409
456.1673	157.8996
456.3317	157.2649
456.496	158.8017
456.6603	159.8794
456.8246	155.1111
456.989	158.7492
457.1533	159.5949
457.3176	160.3199
457.4819	156.9654
457.6462	155.8418
457.8105	162.3353
457.9748	155.4582
458.1391	150.7869
458.3033	156.2025
458.4676	155.0324
458.6319	154.715
458.7961	155.5204
458.9604	162.6774
459.1246	154.3615
459.2888	146.4876
459.4531	159.1944
459.6173	155.6131
459.7815	153.8963
459.9457	153.1037
460.11	154.4013
460.2741	150.8484
460.4384	155.4886
460.6025	159.0877
460.7667	158.1255
460.9309	156.4792
461.0951	162.6012
461.2592	157.4019
461.4234	155.8845
461.5876	164.1353
461.7517	161.4827
461.9159	156.4971
462.08	165.3267
462.2441	165.0241
462.4082	159.6505
462.5724	164.271
462.7365	158.7791
462.9006	162.3195
463.0647	165.6674
463.2288	163.4627
463.3929	161.0638
463.557	158.9693
463.721	156.7654
463.8851	157.162
464.0492	156.1274
464.2132	155.9708
464.3773	157.4588
464.5414	152.7064
464.7054	146.5812
464.8694	152.7682
465.0334	153.7642
465.1975	159.9366
465.3615	164.0127
465.5255	154.6768
465.6895	152.6602
465.8535	164.347
466.0175	167.0164
466.1815	162.5168
466.3455	163.004
466.5095	158.9936
466.6734	145.6457
466.8374	151.7919
467.0014	154.6519
467.1653	157.0711
467.3293	162.6182
467.4932	161.1717
467.6571	159.7161
467.8211	161.569
467.985	165.1807
468.1489	161.8874
468.3128	162.2413
468.4767	163.0928
468.6406	169.6956
468.8045	168.7003
468.9684	166.4347
469.1323	155.8624
469.2962	161.7099
469.46	168.3497
469.6239	174.4593
469.7878	166.8071
469.9516	164.0688
470.1154	158.9837
470.2793	158.5466
470.4431	160.391
470.607	161.7191
470.7708	157.5527
470.9346	165.4819
471.0984	170.0756
471.2622	173.4407
471.426	166.9167
471.5898	176.1396
471.7536	175.0388
471.9174	172.9069
472.0811	174.0511
472.2449	172.9158
472.4087	181.9618
472.5724	175.0613
472.7362	170.3274
472.8999	158.8319
473.0637	166.8636
473.2274	165.4148
473.3911	169.4524
473.5548	173.0031
473.7185	170.1038
473.8822	173.8385
474.0459	173.5108
474.2096	180.143
474.3733	174.2547
474.537	178.9824
474.7007	179.4259
474.8643	183.4931
475.028	178.2473
475.1917	178.8647
475.3553	170.2687
475.519	163.0442
475.6826	173.7271
475.8463	173.9618
476.0099	180.7149
476.1735	177.8013
476.3371	171.9707
476.5007	165.9685
476.6643	168.8239
476.8279	166.6023
476.9915	170.5293
477.1551	172.8956
477.3187	174.9594
477.4823	176.8674
477.6458	180.5871
477.8094	176.5365
477.9729	182.28
478.1365	173.8308
478.3	170.609
478.4636	171.4372
478.6271	169.8562
478.7906	171.5305
478.9541	165.2713
479.1176	168.8951
479.2812	169.4261
479.4447	179.8004
479.6082	180.6239
479.7716	176.395
479.9351	172.7069
480.0986	170.4629
480.2621	178.4297
480.4255	176.2779
480.589	178.2674
480.7524	180.5189
480.9159	172.0675
481.0793	175.4854
481.2428	176.7984
481.4062	177.6054
481.5696	177.1044
481.733	180.38
481.8964	178.8445
482.0598	172.5792
482.2232	174.3047
482.3866	177.6892
482.55	176.5014
482.7134	182.4405
482.8768	180.8754
483.0401	174.0375
483.2035	168.823
483.3668	175.0297
483.5302	179.8204
483.6935	176.1413
483.8568	173.5494
484.0202	173.4122
484.1835	170.0664
484.3468	174.0822
484.5101	182.826
484.6734	185.9131
484.8367	178.618
485	179.4964
485.1633	182.5923
485.3266	184.6697
485.4899	172.9509
485.6531	159.6526
485.8164	148.0065
485.9796	143.9809
486.1429	144.4162
486.3061	146.1887
486.4694	147.0416
486.6326	164.341
486.7958	171.1708
486.959	165.4106
487.1223	165.411
487.2855	164.483
487.4486	161.9374
487.6118	171.9898
487.775	175.7734
487.9382	176.0042
488.1014	179.9504
488.2646	179.6017
488.4277	179.5915
488.5909	180.2365
488.754	172.0949
488.9171	165.3063
489.0803	166.716
489.2434	172.983
489.4066	178.5113
489.5697	185.4495
489.7328	187.1293
489.8959	192.375
490.059	185.0516
490.2221	185.4485
490.3852	178.5811
490.5482	182.1732
490.7113	191.0595
490.8744	186.9716
491.0374	181.8686
491.2005	180.3413
491.3636	185.744
491.5266	185.1765
491.6896	177.8707
491.8527	165.5366
492.0157	167.2694
492.1787	168.4259
492.3417	170.7378
492.5047	172.7397
492.6677	186.9147
492.8307	191.3897
492.9937	194.0079
493.1567	188.9579
493.3196	178.0293
493.4826	184.5476
493.6456	184.448
493.8085	181.0433
493.9715	178.584
494.1344	184.7207
494.2974	191.4937
494.4603	196.9653
494.6232	189.8947
494.7861	192.5013
494.949	188.3964
495.1119	200.4318
495.2748	200.3807
495.4377	189.8618
495.6006	183.749
495.7635	178.3834
495.9264	179.9753
496.0892	191.5203
496.2521	188.7204
496.4149	189.5282
496.5778	192.3269
496.7407	186.492
496.9035	186.8183
497.0663	186.7627
497.2291	195.9073
497.3919	197.0318
497.5547	199.976
497.7176	188.9416
497.8804	176.2909
498.0432	184.4823
498.2059	183.822
498.3687	176.9544
498.5315	175.1226
498.6942	185.343
498.857	185.8671
499.0198	190.8777
499.1825	187.0142
499.3452	189.1555
499.508	197.1926
499.6707	187.4772
499.8334	185.2313
499.9962	184.0026
500.1589	186.8231
500.3216	178.8535
500.4843	178.3596
500.6469	179.6479
500.8096	180.2201
500.9723	184.8162
501.135	189.6646
501.2976	179.7773
501.4603	179.9547
501.623	174.8804
501.7856	177.5817
501.9482	180.5034
502.1109	181.7207
502.2735	182.3322
502.4361	183.6328
502.5987	185.6694
502.7614	181.8736
502.924	182.2205
503.0865	191.2952
503.2491	194.5534
503.4117	191.1081
503.5743	188.7913
503.7368	190.0204
503.8994	180.7527
504.062	168.9679
504.2245	172.1228
504.3871	189.4613
504.5496	191.1109
504.7121	191.5
504.8746	192.4498
505.0372	188.4599
505.1997	185.4499
505.3622	194.7254
505.5247	197.4069
505.6872	192.8102
505.8497	199.2762
506.0121	197.3883
506.1746	199.5903
506.3371	197.6634
506.4995	201.4395
506.662	196.7063
506.8244	188.7304
506.9869	193.639
507.1493	195.4427
507.3117	198.9518
507.4742	197.9931
507.6366	197.0707
507.799	188.3483
507.9614	184.0626
508.1238	183.8323
508.2862	188.7047
508.4485	198.9365
508.6109	198.7563
508.7733	195.7271
508.9357	198.6831
509.098	195.8478
509.2604	199.507
509.4227	203.4728
509.5851	196.6918
509.7474	193.0505
509.9097	193.3371
510.072	191.3884
510.2343	196.4859
510.3966	206.702
510.5589	202.8342
510.7212	191.8186
510.8835	194.4732
511.0458	197.408
511.2081	203.8923
511.3703	195.9134
511.5326	200.8589
511.6949	199.8107
511.8571	200.419
512.0193	196.4766
512.1816	197.9715
512.3438	191.5242
512.506	192.5427
512.6682	197.5869
512.8304	195.247
512.9926	191.8932
513.1548	197.3204
513.317	194.8781
513.4792	195.4629
513.6414	200.9716
513.8035	197.2353
513.9657	194.4852
514.1279	191.9911
514.29	180.6273
514.4521	189.0989
514.6143	195.6898
514.7764	192.6823
514.9385	194.1037
515.1006	190.0112
515.2628	191.6545
515.4249	198.8523
515.587	202.7116
515.7491	200.5853
515.9111	199.4751
516.0732	189.9681
516.2353	191.944
516.3973	189.0074
516.5594	177.9985
516.7214	169.8779
516.8835	166.9716
517.0455	169.5437
517.2076	171.6152
517.3696	174.5592
517.5316	182.5696
517.6937	193.4406
517.8557	197.3132
518.0176	193.784
518.1796	190.6941
518.3416	176.5261
518.5036	171.9404
518.6656	177.7686
518.8275	184.7745
518.9895	188.1299
519.1514	188.8926
519.3134	192.9672
519.4753	192.4314
519.6373	186.7408
519.7992	188.2819
519.9611	197.8404
520.123	204.3028
520.2849	192.0066
520.4468	195.2192
520.6087	189.835
520.7706	187.9698
520.9325	188.1496
521.0944	191.8286
521.2562	198.7429
521.4181	196.7944
521.58	192.4196
521.7418	191.1855
521.9036	188.6866
522.0655	197.8409
522.2273	198.8403
522.3891	197.9754
522.551	187.0011
522.7128	181.7171
522.8746	197.3959
523.0363	197.1644
523.1981	195.4465
523.3599	194.8884
523.5217	198.5963
523.6835	194.44
523.8452	197.077
524.007	196.988
524.1687	192.3723
524.3304	203.0786
524.4922	203.9311
524.6539	201.8273
524.8157	199.8768
524.9774	196.7084
525.1391	194.8047
525.3008	192.534
525.4625	199.5225
525.6241	203.1523
525.7858	204.3935
525.9475	211.111
526.1092	204.7649
526.2709	191.8141
526.4325	181.6609
526.5942	184.9049
526.7558	178.8156
526.9174	178.8118
527.079	185.7671
527.2407	187.7098
527.4023	193.806
527.5639	195.8217
527.7255	196.7581
527.8871	203.4626
528.0487	205.4165
528.2103	202.9654
528.3718	199.3891
528.5334	196.0877
528.695	198.0681
528.8565	205.1585
529.0181	208.7608
529.1796	209.6686
529.3412	203.4033
529.5027	197.4367
529.6642	204.2923
529.8257	203.6213
529.9872	193.8927
530.1487	197.2215
530.3102	195.6038
530.4717	201.9237
530.6332	206.0388
530.7947	211.0879
530.9562	210.3656
531.1176	212.3152
531.2791	209.6005
531.4405	212.9375
531.6019	204.6045
531.7634	207.0484
531.9248	205.2473
532.0862	209.4102
532.2477	202.2912
532.4091	205.9608
532.5704	195.7193
532.7319	193.4566
532.8932	200.3609
533.0546	198.2968
533.216	197.5076
533.3774	211.4186
533.5388	210.0498
533.7001	212.7958
533.8615	200.4731
534.0228	203.8718
534.1841	192.8024
534.3455	199.9899
534.5068	211.5277
534.6681	208.1266
534.8293	209.4527
534.9907	199.7838
535.152	202.2388
535.3132	202.1717
535.4745	203.7742
535.6358	211.3392
535.7971	210.1587
535.9583	206.6974
536.1196	205.3094
536.2808	211.8231
536.4421	210.5887
536.6033	200.2224
536.7645	201.5629
536.9258	205.4177
537.087	196.6483
537.2482	194.8797
537.4094	197.5757
537.5706	207.2027
537.7318	204.7987
537.8929	202.833
538.0541	205.8713
538.2153	205.0038
538.3764	196.2608
538.5376	203.9855
538.6987	204.1183
538.8599	198.1807
539.021	205.7151
539.1821	203.8011
539.3432	197.2305
539.5043	197.5486
539.6655	200.5873
539.8265	202.3545
539.9876	200.0283
540.1487	201.0706
540.3098	199.6509
540.4708	198.2422
540.6319	193.0221
540.793	198.3901
540.954	198.974
541.1151	194.9473
541.2761	198.0981
541.4371	194.0804
541.5981	192.1915
541.7592	198.3476
541.9202	198.6288
542.0812	196.3944
542.2422	199.2403
542.4031	203.6576
542.5641	201.1958
542.7251	202.3145
542.886	198.0152
543.0471	202.9507
543.208	195.2378
543.369	201.8452
543.5298	198.3839
543.6908	199.1951
543.8517	204.4052
544.0126	209.6497
544.1736	210.1383
544.3345	204.5055
544.4954	194.3206
544.6563	198.8538
544.8171	199.6058
544.978	203.4484
545.1389	206.3163
545.2997	198.8449
545.4606	197.399
545.6215	197.5461
545.7823	197.8794
545.9432	203.2741
546.104	203.0907
546.2648	200.0058
546.4256	195.4358
546.5864	196.4748
546.7473	205.845
546.908	202.2222
547.0688	199.684
547.2296	204.295
547.3904	199.963
547.5511	196.9846
547.7119	197.5226
547.8727	198.195
548.0334	198.6723
548.1942	202.6851
548.3549	210.051
548.5156	205.1762
548.6763	199.7452
548.837	197.6638
548.9977	203.6931
549.1584	206.143
549.3192	205.0257
549.4798	201.529
549.6405	207.0409
549.8011	204.4712
549.9619	202.4836
550.1225	198.0448
550.2831	198.8858
550.4438	203.2052
550.6044	203.1224
550.765	206.5971
550.9257	204.4641
551.0863	204.6616
551.2469	199.5927
551.4075	204.4621
551.5681	210.4291
551.7287	209.8587
551.8893	213.0708
552.0498	207.4782
552.2104	203.7682
552.371	206.922
552.5315	202.7928
552.6921	196.8845
552.8526	202.0348
553.0131	200.3172
553.1736	205.6812
553.3342	197.9929
553.4947	204.9945
553.6552	205.0342
553.8157	202.3834
553.9762	205.3283
554.1367	202.5506
554.2971	207.324
554.4576	202.1311
554.618	207.8485
554.7785	209.2842
554.939	210.626
555.0994	205.8006
555.2598	203.8896
555.4203	201.3871
555.5807	200.4322
555.7411	211.3255
555.9015	214.705
556.0619	205.2035
556.2223	202.9338
556.3827	200.5183
556.5431	202.0975
556.7034	198.1046
556.8638	203.5956
557.0242	195.4602
557.1845	201.0197
557.3448	201.118
557.5052	195.7664
557.6655	199.6678
557.8259	204.6699
557.9861	211.3831
558.1465	212.2973
558.3068	204.4826
558.467	199.3926
558.6274	201.0937
558.7877	196.6508
558.9479	199.0753
559.1082	193.6445
559.2684	192.3657
559.4287	192.3551
559.5889	203.3317
559.7491	206.6871
559.9094	203.009
560.0696	200.1046
560.2299	206.2838
560.3901	198.682
560.5502	201.8139
560.7104	212.8662
560.8707	215.1462
561.0308	209.498
561.191	204.0459
561.3511	205.9286
561.5114	202.65
561.6714	197.3367
561.8316	199.2949
561.9918	201.0543
562.1519	205.4513
562.312	203.5907
562.4722	204.9267
562.6323	205.3348
562.7924	202.3203
562.9525	197.9648
563.1125	203.8239
563.2726	200.6439
563.4327	205.8813
563.5928	208.954
563.7528	200.0307
563.9129	202.5511
564.0729	202.168
564.233	203.4641
564.393	207.6713
564.553	204.5074
564.7131	205.376
564.873	211.5975
565.0331	206.4068
565.1931	206.1969
565.353	202.5887
565.5131	198.4515
565.673	199.122
565.833	201.8999
565.9929	204.8522
566.1529	203.0209
566.3129	203.5238
566.4728	210.4173
566.6328	206.8182
566.7927	205.2216
566.9526	202.1726
567.1125	202.1852
567.2724	206.5809
567.4323	208.0777
567.5922	206.7993
567.7521	202.6837
567.9119	205.2727
568.0718	203.2322
568.2317	205.2185
568.3915	193.843
568.5514	199.4263
568.7112	204.6397
568.871	207.2051
569.0309	204.9913
569.1907	203.3235
569.3505	201.1317
569.5103	205.7282
569.6701	205.4358
569.8299	201.3112
569.9897	202.0266
570.1495	205.1887
570.3092	207.9825
570.469	205.4029
570.6287	201.9961
570.7885	203.9465
570.9482	196.0351
571.108	197.23
571.2677	202.8405
571.4274	205.2258
571.5871	205.2711
571.7468	211.6068
571.9066	214.6107
572.0662	220.7622
572.2259	216.5967
572.3856	214.6251
572.5452	203.8155
572.7049	208.9337
572.8646	217.7199
573.0242	211.0393
573.1838	211.0656
573.3435	211.0793
573.5031	212.9107
573.6627	212.7201
573.8223	215.033
573.9819	221.5764
574.1415	217.3299
574.3011	219.2594
574.4607	213.9366
574.6203	213.0923
574.7798	217.1708
574.9394	215.2551
575.099	220.2312
575.2585	219.5151
575.418	213.0914
575.5776	212.1776
575.7371	222.1595
575.8966	214.3819
576.0562	213.5934
576.2156	214.0383
576.3751	204.0496
576.5346	212.9318
576.6941	219.3439
576.8536	219.5276
577.0131	220.032
577.1725	218.8895
577.332	214.7759
577.4914	210.384
577.6508	217.4271
577.8103	217.4603
577.9697	221.0154
578.1291	219.1046
578.2885	215.2084
578.4479	217.3067
578.6073	217.3617
578.7667	223.4995
578.9261	221.5697
579.0854	213.7732
579.2448	213.8962
579.4042	218.8086
579.5635	213.4485
579.7229	211.9578
579.8822	219.3927
580.0416	225.2211
580.2009	223.0733
580.3602	222.6411
580.5195	222.985
580.6788	222.5152
580.8381	221.96
580.9974	217.6761
581.1566	225.2251
581.3159	217.1708
581.4752	220.8329
581.6345	225.5451
581.7937	221.6479
581.9529	220.0103
582.1122	221.2913
582.2714	221.3305
582.4306	226.5334
582.5898	224.6696
582.749	220.9618
582.9082	217.7358
583.0674	223.6489
583.2266	229.6954
583.3857	225.7415
583.5449	221.5573
583.7041	228.8689
583.8633	230.8346
584.0224	231.6743
584.1815	230.1884
584.3407	224.5667
584.4998	221.8501
584.6589	219.3935
584.818	224.4957
584.9771	216.4344
585.1362	218.9418
585.2953	225.501
585.4544	222.3528
585.6135	218.5673
585.7725	216.2801
585.9316	219.3308
586.0906	225.6211
586.2497	231.8063
586.4087	218.3277
586.5677	216.3141
586.7267	219.2017
586.8858	224.2769
587.0448	229.0045
587.2038	230.3203
587.3628	223.6324
587.5218	221.8795
587.6807	221.4558
587.8397	218.1599
587.9987	228.3922
588.1577	223.7119
588.3166	218.3346
588.4755	219.7092
588.6345	214.887
588.7934	213.1792
588.9523	208.2481
589.1112	222.9256
589.2701	221.2943
589.429	212.5994
589.5879	212.3878
589.7468	209.5996
589.9056	207.5283
590.0645	217.7486
590.2234	223.1594
590.3822	227.7659
590.5411	227.9165
590.6999	226.7893
590.8588	220.9995
591.0176	223.9162
591.1764	220.0597
591.3352	224.2563
591.494	219.382
591.6528	221.0289
591.8116	221.8241
591.9703	223.1504
592.1291	225.2611
592.2878	226.0692
592.4467	225.0464
592.6053	225.6033
592.7641	225.2322
592.9229	227.6134
593.0816	225.5852
593.2403	230.4925
593.399	225.399
593.5577	234.9812
593.7164	227.1875
593.8751	227.3675
594.0338	230.319
594.1924	227.2813
594.3511	230.8587
594.5098	227.7623
594.6684	234.0793
594.8271	218.6507
594.9857	216.7907
595.1443	224.3908
595.303	219.7755
595.4615	226.2054
595.6202	225.161
595.7787	225.3345
595.9374	226.9526
596.0959	227.1825
596.2545	229.6809
596.4131	231.529
596.5717	234.4458
596.7302	232.7057
596.8887	238.5389
597.0473	239.0825
597.2058	234.6732
597.3644	234.2208
597.5229	236.794
597.6814	228.8553
597.8399	226.8647
597.9984	233.4971
598.1569	233.1589
598.3154	235.5839
598.4738	235.8089
598.6323	241.2184
598.7908	234.4706
598.9492	237.0252
599.1076	238.8868
599.2661	236.7378
599.4245	237.1104
599.5829	232.2808
599.7413	231.713
599.8997	235.3126
600.0581	238.2228
600.2165	238.0905
600.3749	233.5919
600.5333	238.3469
600.6917	228.3119
600.85	232.9149
601.0084	238.5483
601.1667	241.7641
601.325	238.8967
601.4833	237.0016
601.6417	238.7065
601.8	230.6004
601.9583	233.8751
602.1166	234.6612
602.2749	235.4436
602.4332	239.256
602.5914	237.9455
602.7498	242.4563
602.908	244.4662
603.0662	241.063
603.2245	241.2575
603.3828	238.9974
603.541	244.5684
603.6992	239.7268
603.8574	237.9018
604.0156	236.0474
604.1738	237.3338
604.332	248.0632
604.4902	244.1677
604.6484	238.9834
604.8065	242.3972
604.9647	250.5361
605.1229	246.4282
605.281	239.5459
605.4391	241.4945
605.5973	243.2268
605.7554	243.7447
605.9135	240.612
606.0717	238.6192
606.2297	242.2711
606.3878	238.8863
606.5459	237.7406
606.704	232.9652
606.8621	233.3952
607.0201	244.5132
607.1782	244.922
607.3362	244.7525
607.4943	244.755
607.6523	241.9192
607.8104	238.6729
607.9684	239.191
608.1264	244.8298
608.2844	236.9827
608.4424	239.7278
608.6003	242.548
608.7584	238.0366
608.9163	246.3247
609.0743	249.8965
609.2322	240.3454
609.3902	238.1035
609.5482	242.0618
609.7061	243.0048
609.864	242.0296
610.0219	230.8152
610.1798	229.929
610.3377	230.6633
610.4956	238.2626
610.6535	242.2998
610.8114	239.0239
610.9693	243.2983
611.1271	247.4125
611.285	241.8816
611.4429	241.2538
611.6007	236.1621
611.7585	232.5093
611.9164	241.8039
612.0742	239.1503
612.232	230.3036
612.3898	233.9917
612.5476	235.6796
612.7054	231.9701
612.8632	236.1324
613.0209	237.581
613.1787	238.7422
613.3365	236.1262
613.4942	234.5206
613.652	241.5659
613.8097	232.6807
613.9674	227.4076
614.1252	239.0428
614.2829	235.8107
614.4406	237.3389
614.5983	237.5722
614.756	239.9099
614.9136	236.8825
615.0714	231.6357
615.229	231.3218
615.3867	232.5201
615.5443	235.5101
615.702	229.8206
615.8596	233.4803
616.0172	227.4743
616.1748	229.7175
616.3325	222.8528
616.4901	221.6228
616.6476	229.5288
616.8052	227.481
616.9628	226.263
617.1204	229.9376
617.278	235.2359
617.4355	238.2857
617.5931	238.6669
617.7506	234.5281
617.9081	234.0307
618.0657	232.0286
618.2232	234.7052
618.3807	236.7585
618.5382	230.3263
618.6957	233.369
618.8532	237.7274
619.0107	229.5841
619.1682	233.1484
619.3256	231.7072
619.4831	231.3353
619.6406	236.8107
619.798	235.5211
619.9554	230.2154
620.1129	241.088
620.2703	237.9729
620.4277	238.4692
620.5851	231.9378
620.7425	234.0567
620.8998	238.1891
621.0573	237.7095
621.2146	230.0594
621.372	230.709
621.5294	229.0306
621.6867	230.1537
621.8441	222.4112
622.0013	225.4041
622.1587	228.7146
622.316	233.4478
622.4733	232.0381
622.6306	230.5179
622.7879	228.9855
622.9452	228.056
623.1025	229.5798
623.2598	228.3516
623.4171	221.6999
623.5743	226.0196
623.7316	228.4748
623.8888	223.5456
624.046	222.8951
624.2032	225.6609
624.3605	221.6212
624.5176	225.7908
624.6749	225.8421
624.8321	234.4338
624.9893	231.2148
625.1464	227.7613
625.3036	220.8307
625.4608	221.3226
625.6179	223.4509
625.7751	228.5322
625.9322	231.3096
626.0894	223.9581
626.2465	230.1741
626.4036	225.7938
626.5607	226.3963
626.7178	228.381
626.8749	231.8555
627.032	233.3163
627.189	225.5436
627.3461	229.0776
627.5032	237.2318
627.6602	228.6274
627.8173	218.5864
627.9743	219.656
628.1313	225.0621
628.2884	223.6917
628.4454	216.2179
628.6024	224.4992
628.7594	224.5593
628.9164	225.9656
629.0734	226.4964
629.2303	221.7671
629.3873	217.2302
629.5443	218.748
629.7012	220.1561
629.8582	217.4477
630.0151	218.7152
630.172	222.4789
630.3289	216.3959
630.4858	217.3715
630.6428	221.6172
630.7996	226.9178
630.9565	220.983
631.1134	223.9348
631.2703	222.1948
631.4272	221.0109
631.584	220.5935
631.7408	214.6296
631.8977	207.6381
632.0546	208.6972
632.2114	216.3872
632.3682	217.0876
632.525	221.2211
632.6818	216.4996
632.8386	220.0916
632.9954	217.2872
633.1522	224.6418
633.3089	227.1639
633.4657	219.9203
633.6224	218.647
633.7792	223.1746
633.9359	223.0279
634.0927	224.1419
634.2494	222.9984
634.4061	217.5833
634.5628	223.8288
634.7195	216.7906
634.8762	217.8593
635.0329	219.429
635.1895	226.9999
635.3462	230.3595
635.5029	219.515
635.6595	222.6342
635.8162	227.2819
635.9728	223.9344
636.1295	218.0004
636.2861	224.4291
636.4427	218.096
636.5992	217.7874
636.7559	214.3383
636.9124	219.9511
637.069	223.6753
637.2256	221.1263
637.3821	224.5734
637.5387	213.9093
637.6953	218.7418
637.8518	219.6903
638.0084	222.9213
638.1649	222.1237
638.3214	215.0517
638.4779	214.5692
638.6344	211.7095
638.7909	219.6579
638.9474	224.0353
639.1038	219.0779
639.2603	212.0307
639.4167	213.2781
639.5732	210.7776
639.7297	215.6997
639.8861	217.1109
640.0425	208.4878
640.199	215.4196
640.3553	219.2177
640.5118	213.1468
640.6682	210.3979
640.8245	211.2823
640.981	214.1688
641.1373	210.2458
641.2936	215.9241
641.45	214.3266
641.6064	212.1009
641.7627	209.8132
641.9191	212.3967
642.0754	218.6088
642.2317	210.3936
642.388	209.6805
642.5443	208.7413
642.7006	211.7366
642.8569	212.1638
643.0131	214.5695
643.1694	210.5117
643.3257	213.7971
643.4819	218.2724
643.6382	214.9459
643.7944	208.4155
643.9506	210.7564
644.1069	210.0811
644.2631	209.975
644.4193	201.2836
644.5754	206.6261
644.7316	209.8194
644.8878	207.4652
645.044	209.8414
645.2002	205.1471
645.3563	207.183
645.5125	208.1901
645.6686	201.7175
645.8248	200.8224
645.9809	198.452
646.137	199.4313
646.2931	208.1509
646.4492	206.2123
646.6053	195.5132
646.7614	197.039
646.9174	200.6098
647.0735	192.6351
647.2296	196.7171
647.3856	194.0913
647.5417	198.7862
647.6977	197.2544
647.8537	202.7468
648.0098	207.8764
648.1658	203.8581
648.3218	195.8373
648.4777	198.2498
648.6337	199.8363
648.7897	200.6273
648.9457	199.7811
649.1016	201.9651
649.2576	191.6181
649.4135	194.7887
649.5695	188.572
649.7254	190.4356
649.8813	193.5449
650.0372	200.9486
650.1932	198.2902
650.3491	204.8077
650.5049	201.7624
650.6608	203.1218
650.8167	201.7911
650.9725	205.3628
651.1284	200.7331
651.2842	199.4218
651.4401	191.9412
651.5959	193.5797
651.7518	190.0591
651.9076	176.9991
652.0634	184.1846
652.2192	193.0863
652.3749	195.918
652.5308	191.055
652.6865	192.2027
652.8423	190.6109
652.998	192.3413
653.1538	192.5002
653.3096	194.1382
653.4653	192.4354
653.621	195.1235
653.7767	197.7958
653.9324	197.0142
654.0881	197.4245
654.2438	198.9724
654.3995	197.594
654.5552	189.5121
654.7109	187.4631
654.8665	190.8044
655.0222	194.0297
655.1778	192.7033
655.3334	190.6723
655.4891	191.3277
655.6447	184.1107
655.8003	179.0615
655.9559	177.8986
656.1115	173.6791
656.2671	159.4158
656.4227	162.096
656.5782	166.4805
656.7338	167.794
656.8893	179.8669
657.0449	186.0278
657.2004	180.6025
657.356	183.7666
657.5115	189.0987
657.667	192.8804
657.8225	197.512
657.978	188.7025
658.1335	189.3143
658.289	192.5311
658.4445	194.8581
658.5999	193.5565
658.7554	194.1379
658.9108	192.7472
659.0663	193.6672
659.2217	182.8643
659.3771	188.0746
659.5325	187.4235
659.6879	178.9024
659.8433	194.0253
659.9987	190.4459
660.1541	191.0042
660.3095	195.8416
660.4648	192.7611
660.6202	188.7832
660.7756	190.5671
660.9309	191.9167
661.0862	195.5627
661.2416	198.4043
661.3969	193.0502
661.5522	190.4037
661.7075	193.0511
661.8628	197.6801
662.0181	202.4543
662.1733	197.4149
662.3286	190.6143
662.4839	183.461
662.6391	186.8096
662.7944	190.2903
662.9496	187.4452
663.1048	191.5966
663.26	189.5392
663.4152	180.7495
663.5704	182.8342
663.7256	190.9683
663.8808	190.6097
664.036	190.0821
664.1912	193.9583
664.3463	194.4383
664.5015	192.3242
664.6566	188.3155
664.8118	190.8611
664.9669	194.3726
665.122	195.8685
665.2771	188.0576
665.4322	186.0601
665.5873	176.4611
665.7424	181.7097
665.8975	188.6661
666.0526	186.3764
666.2076	185.0929
666.3627	179.1807
666.5177	179.8164
666.6727	189.3811
666.8278	182.0543
666.9828	182.9533
667.1378	189.4989
667.2928	189.7176
667.4478	183.4362
667.6028	186.5372
667.7578	184.1322
667.9127	185.1992
668.0677	186.9551
668.2226	183.3031
668.3776	191.8577
668.5325	190.9447
668.6874	184.002
668.8423	185.3623
668.9973	180.5197
669.1522	188.7942
669.3071	179.7907
669.4619	183.5839
669.6168	186.7678
669.7717	182.2187
669.9265	188.1741
670.0814	190.5932
670.2362	185.5689
670.3911	184.4845
670.5459	181.7739
670.7007	178.5901
670.8555	182.279
671.0103	182.8918
671.1651	181.1178
671.3199	187.1806
671.4747	183.1297
671.6295	175.9553
671.7842	184.3848
671.939	181.083
672.0937	181.2889
672.2484	188.1032
672.4031	184.4274
672.5579	182.3669
672.7126	176.6379
672.8673	182.5128
673.022	184.2969
673.1767	180.7267
673.3314	183.7774
673.486	181.9414
673.6407	183.0668
673.7953	180.3418
673.95	178.276
674.1046	184.1802
674.2592	177.8709
674.4138	171.1058
674.5684	173.7348
674.723	174.5423
674.8776	173.5087
675.0322	179.0211
675.1868	179.3068
675.3414	175.0836
675.4959	182.2333
675.6505	184.9855
675.805	178.2119
675.9595	179.0909
676.1141	176.9879
676.2686	174.8309
676.4231	176.5098
676.5776	177.1663
676.7321	172.5455
676.8866	172.775
677.041	172.8511
677.1955	170.4702
677.35	172.5715
677.5044	174.4326
677.6589	175.8798
677.8133	175.9749
677.9677	179.1439
678.1221	176.6175
678.2766	171.2415
678.4309	169.7983
678.5853	177.0063
678.7397	171.5264
678.8941	167.5829
679.0485	173.5737
679.2028	166.3011
679.3571	172.6593
679.5115	172.87
679.6658	169.0226
679.8201	166.6568
679.9744	167.804
680.1288	167.5144
680.2831	168.3958
680.4373	168.2634
680.5916	172.8084
680.7459	168.6109
680.9001	170.1263
681.0544	167.7228
681.2087	164.6183
681.3629	165.9591
681.5171	164.2548
681.6713	162.8271
681.8256	164.9603
681.9797	165.4724
682.134	161.8358
682.2881	166.2866
682.4423	166.7585
682.5965	169.5617
682.7507	164.9556
682.9048	162.1401
683.059	169.8946
683.2131	166.1133
683.3672	165.4883
683.5213	166.1703
683.6754	161.9724
683.8295	162.1239
683.9836	157.7853
684.1377	159.0811
684.2918	162.8317
684.4459	155.3176
684.5999	165.8538
684.754	162.7173
684.908	156.3007
685.062	160.7216
685.2161	165.9782
685.3701	165.4416
685.5241	162.5863
685.6781	156.3772
685.8321	158.0685
685.9861	159.1916
686.14	165.252
686.294	159.6568
686.4479	150.1285
686.6019	145.1422
686.7559	135.5768
686.9098	129.9285
687.0637	120.0006
687.2176	118.9829
687.3715	126.3904
687.5254	132.0831
687.6793	138.3399
687.8332	139.9599
687.9871	139.8764
688.1409	139.8585
688.2947	142.148
688.4486	145.0924
688.6024	142.7864
688.7563	138.5862
688.9101	140.4773
689.0639	141.1834
689.2177	144.4221
689.3715	148.3848
689.5253	138.8628
689.6791	138.9617
689.8328	142.3958
689.9866	140.7609
690.1403	143.2338
690.2941	146.3797
690.4478	143.2756
690.6015	142.0271
690.7552	142.3041
690.9089	141.9211
691.0626	142.4094
691.2164	147.3142
691.37	146.9767
691.5237	143.8574
691.6774	150.4376
691.831	150.3602
691.9847	152.2266
692.1383	152.8183
692.2919	153.3874
692.4456	147.3035
692.5992	148.3854
692.7527	150.3371
692.9064	143.172
693.0599	136.0625
693.2136	143.5368
693.3671	143.8424
693.5207	146.3904
693.6742	148.5568
693.8278	151.0957
693.9813	140.7236
694.1348	144.7847
694.2883	141.1272
694.4418	137.4498
694.5953	138.144
694.7488	140.4086
694.9023	143.5025
695.0558	141.7931
695.2093	140.9901
695.3627	141.8329
695.5162	143.3611
695.6696	142.7431
695.8231	142.6645
695.9764	145.1577
696.1299	139.8351
696.2833	143.0679
696.4367	147.8441
696.5901	146.6776
696.7435	147.6095
696.8968	147.1895
697.0502	145.5102
697.2036	149.3542
697.3569	147.7193
697.5102	146.8529
697.6635	142.0055
697.8168	146.8751
697.9702	145.4005
698.1235	148.3779
698.2768	151.0667
698.4301	142.4729
698.5833	145.2992
698.7366	146.0253
698.8898	146.4133
699.0431	143.3027
699.1964	140.5175
699.3495	138.3694
699.5028	138.6715
699.656	145.566
699.8092	142.1967
699.9624	136.7365
700.1156	135.2765
700.2688	136.8018
700.4219	135.1354
700.5751	137.552
700.7283	136.7476
700.8814	139.3226
701.0345	142.7356
701.1877	142.4901
701.3408	136.9282
701.4939	134.1855
701.647	132.3152
701.8001	136.4531
701.9532	138.2325
702.1063	138.5886
702.2593	142.4712
702.4124	141.8854
702.5654	141.9636
702.7184	138.9442
702.8715	137.1494
703.0245	140.6358
703.1776	138.8479
703.3305	140.0026
703.4835	138.9725
703.6365	141.3702
703.7895	140.7837
703.9424	136.44
704.0954	141.8402
704.2484	144.6397
704.4013	139.1407
704.5543	140.5719
704.7072	141.7615
704.8601	137.8862
705.013	140.8312
705.1659	137.2716
705.3188	140.2594
705.4717	140.9459
705.6246	140.9646
705.7774	143.6275
705.9303	142.6438
706.0831	144.0951
706.236	142.7987
706.3888	142.9208
706.5416	140.3046
706.6944	141.0812
706.8472	141.4447
707	139.3804
707.1528	134.3637
707.3056	138.2686
707.4583	139.5494
707.6111	143.2994
707.7639	141.5035
707.9166	136.1235
708.0693	136.4185
708.222	132.8159
708.3748	140.9909
708.5275	142.0514
708.6802	144.5422
708.8328	137.2338
708.9855	135.6827
709.1382	138.2083
709.2909	137.9367
709.4435	135.8407
709.5962	141.884
709.7488	136.7776
709.9014	139.0663
710.054	137.3404
710.2067	137.7978
710.3593	135.7457
710.5118	136.9792
710.6644	134.2593
710.817	142.1521
710.9695	134.9985
711.1221	136.0105
711.2747	141.3597
711.4272	138.4046
711.5797	135.232
711.7322	140.7639
711.8848	141.8189
712.0373	136.3581
712.1898	136.0588
712.3422	139.617
712.4948	138.9561
712.6472	135.2929
712.7996	131.6321
712.9521	127.7881
713.1046	135.9872
713.257	134.3875
713.4094	136.5464
713.5618	135.5042
713.7142	137.1343
713.8666	132.596
714.019	133.1915
714.1714	128.7252
714.3237	137.298
714.4761	132.3443
714.6285	132.3028
714.7808	133.6728
714.9331	129.3177
715.0854	129.2962
715.2378	127.1016
715.3901	131.5536
715.5424	137.6368
715.6947	129.4487
715.8469	128.8218
715.9992	131.4452
716.1515	132.5532
716.3037	132.5183
716.456	127.1889
716.6082	125.723
716.7604	112.7472
716.9127	116.3933
717.0649	120.483
717.2171	116.398
717.3693	113.593
717.5214	116.7825
717.6736	117.3355
717.8258	116.1006
717.978	115.5763
718.1301	117.7087
718.2822	118.4659
718.4344	111.285
718.5865	109.1098
718.7386	113.3349
718.8907	106.5084
719.0428	110.1039
719.1949	107.8363
719.3469	113.1228
719.499	115.5658
719.6511	111.5495
719.8031	110.8897
719.9551	110.2704
720.1072	110.5602
720.2592	105.8194
720.4112	113.9133
720.5632	115.9465
720.7152	113.5676
720.8672	114.6258
721.0192	121.0858
721.1711	128.3669
721.3231	120.5828
721.475	119.2159
721.627	125.4063
721.7789	123.7946
721.9308	121.399
722.0828	125.1756
722.2347	118.4919
722.3866	118.2217
722.5385	123.1076
722.6903	124.9623
722.8422	120.1208
722.9941	120.4795
723.1459	113.8208
723.2977	109.0079
723.4496	106.262
723.6014	105.0305
723.7532	111.8063
723.905	112.633
724.0568	111.0038
724.2086	112.5102
724.3604	113.67
724.5121	110.0792
724.6639	113.155
724.8157	111.9794
724.9674	119.1459
725.1191	116.6402
725.2709	110.4217
725.4226	109.327
725.5743	115.4302
725.726	115.3053
725.8777	116.348
726.0294	119.541
726.181	114.8815
726.3327	109.2232
726.4844	105.4826
726.636	119.2106
726.7877	122.4751
726.9393	115.8959
727.0909	111.7321
727.2425	121.3464
727.3941	119.0104
727.5457	109.2222
727.6973	102.6957
727.8488	103.8224
728.0004	107.5944
728.1519	112.4423
728.3035	115.0458
728.455	116.1893
728.6066	115.6072
728.7581	116.307
728.9095	105.1504
729.0611	105.7258
729.2126	105.737
729.364	110.7281
729.5155	111.3899
729.667	115.087
729.8184	119.8705
729.9698	123.1179
730.1213	110.5565
730.2727	109.4912
730.4241	109.399
730.5756	103.394
730.7269	111.1793
730.8784	116.7177
731.0297	109.4683
731.1811	105.4915
731.3325	111.9702
731.4838	109.9545
731.6351	111.9078
731.7865	112.7343
731.9378	112.54
732.0891	115.1302
732.2404	115.1586
732.3917	118.8431
732.543	121.8351
732.6943	113.417
732.8456	118.1754
732.9968	116.1601
733.1481	115.3063
733.2993	119.1728
733.4506	116.7207
733.6018	120.2716
733.753	118.7947
733.9042	117.1316
734.0554	116.3949
734.2066	114.4533
734.3578	112.4581
734.509	114.629
734.6602	119.0035
734.8113	120.9894
734.9624	118.6138
735.1136	114.1403
735.2647	113.5447
735.4158	112.4707
735.5669	112.1168
735.718	116.0115
735.8691	112.8423
736.0201	111.6097
736.1713	116.011
736.3223	117.3135
736.4733	113.7402
736.6244	113.2247
736.7755	115.1483
736.9265	118.3769
737.0775	109.6311
737.2285	114.8511
737.3795	117.1267
737.5305	118.8821
737.6815	113.5057
737.8324	110.5542
737.9834	113.5469
738.1343	113.3493
738.2853	112.1358
738.4362	114.4259
738.5871	113.2483
738.738	113.8735
738.8889	113.2566
739.0399	109.232
739.1907	108.3149
739.3416	110.2404
739.4925	111.4592
739.6433	107.955
739.7942	111.9452
739.945	114.193
740.0958	113.2277
740.2467	110.7678
740.3975	114.2063
740.5483	111.4269
740.6991	113.8362
740.8499	113.9025
741.0007	110.8631
741.1514	110.1442
741.3022	114.705
741.4529	114.2284
741.6036	105.7702
741.7544	106.5695
741.9051	108.0785
742.0558	113.3554
742.2065	108.7683
742.3572	102.5415
742.5079	108.2458
742.6586	110.2042
742.8093	110.0097
742.9599	107.1803
743.1105	108.8591
743.2612	113.7589
743.4118	115.9773
743.5624	113.9832
743.7131	114.001
743.8636	114.8827
744.0142	114.3583
744.1648	105.4995
744.3154	105.9799
744.4659	107.9853
744.6165	110.2622
744.767	107.7471
744.9176	113.4514
745.0681	108.6327
745.2186	105.3214
745.3691	113.2612
745.5197	107.9082
745.6702	105.8259
745.8206	108.0241
745.9711	108.8444
746.1215	103.8179
746.272	104.1939
746.4224	111.2685
746.5729	108.1739
746.7233	105.9879
746.8737	113.3781
747.0241	109.9603
747.1745	108.8471
747.3249	108.1858
747.4753	106.9075
747.6257	110.1501
747.776	104.3159
747.9264	103.0384
748.0767	106.2892
748.2271	101.1539
748.3774	107.4257
748.5276	107.1311
748.678	103.8639
748.8282	106.4302
748.9786	104.7
749.1288	103.197
749.2791	103.2508
749.4294	102.3252
749.5796	100.3186
749.7299	96.13931
749.8801	94.91364
750.0303	100.8546
750.1805	102.8938
750.3307	101.7097
750.4809	106.5718
750.6311	102.923
750.7813	98.87556
750.9314	101.6687
751.0816	95.78922
751.2318	95.10949
751.3818	102.9342
751.532	101.1965
751.6821	101.3612
751.8322	102.9333
751.9823	100.8273
752.1324	99.47214
752.2825	102.4683
752.4326	97.98714
752.5826	95.39751
752.7327	97.66998
752.8827	96.30685
753.0327	94.1089
753.1827	100.6362
753.3328	104.1126
753.4828	99.60574
753.6328	100.0456
753.7828	105.4486
753.9327	104.6259
754.0827	102.6389
754.2327	98.66292
754.3826	101.4429
754.5325	94.4966
754.6825	97.32388
754.8324	96.1825
754.9823	95.53758
755.1322	98.53664
755.2821	95.79965
755.432	99.48136
755.5818	97.05588
755.7318	97.786
755.8816	104.244
756.0314	99.3543
756.1813	94.37508
756.3311	93.34776
756.4809	101.2793
756.6307	96.21519
756.7805	93.41108
756.9303	95.79874
757.0801	93.79504
757.2299	90.04978
757.3796	94.11776
757.5294	99.50127
757.6791	91.03739
757.8289	88.82372
757.9786	90.11622
758.1283	89.51295
758.278	91.80296
758.4277	87.42245
758.5773	90.16353
758.7271	88.27832
758.8767	86.83581
759.0264	90.02374
759.176	90.38533
759.3256	80.86269
759.4753	75.02457
759.6249	60.71184
759.7745	55.58315
759.9241	50.80408
760.0737	46.81537
760.2233	46.95577
760.3729	44.9159
760.5224	43.89906
760.6719	44.83832
760.8215	40.42976
760.971	40.78273
761.1205	48.10813
761.2701	50.62759
761.4196	53.71163
761.5691	57.37021
761.7186	62.12287
761.868	68.11067
762.0175	69.47045
762.167	67.54277
762.3164	61.79162
762.4659	61.65031
762.6153	55.29123
762.7647	57.59358
762.9141	57.98889
763.0635	55.61689
763.2129	53.40314
763.3623	61.46933
763.5117	57.40495
763.661	52.04213
763.8104	56.99103
763.9597	54.9133
764.1091	63.6749
764.2584	62.1381
764.4077	62.86835
764.557	62.80686
764.7063	60.38157
764.8556	65.53956
765.0049	67.60217
765.1541	69.65285
765.3034	69.42234
765.4526	72.64368
765.6019	71.92669
765.7511	69.95017
765.9003	72.77332
766.0496	63.5231
766.1987	65.9176
766.348	73.60262
766.4971	76.48225
766.6463	73.49389
766.7955	74.32922
766.9446	72.77731
767.0938	78.85278
767.2429	80.46107
767.392	79.936
767.5411	83.72408
767.6902	86.07655
767.8394	85.58583
767.9884	80.99402
768.1375	79.57573
768.2866	76.91692
768.4356	81.7948
768.5847	81.21814
768.7337	80.00756
768.8828	78.7078
769.0317	79.93805
769.1808	79.15911
769.3298	78.59177
769.4788	81.97348
769.6277	83.44051
769.7767	85.24184
769.9257	75.92467
770.0746	76.52264
770.2236	82.91264
770.3725	76.07355
770.5214	79.15005
770.6703	80.54173
770.8193	82.55486
770.9681	82.62948
771.1171	78.63508
771.2659	74.54041
771.4148	70.578
771.5637	77.41643
771.7125	78.45158
771.8613	77.08266
772.0101	74.01119
772.159	75.20602
772.3078	75.00074
772.4566	76.63415
772.6054	72.19393
772.7542	74.43103
772.903	75.12007
773.0517	76.52369
773.2004	79.50438
773.3492	74.0393
773.4979	68.93463
773.6467	74.86016
773.7953	78.43488
773.944	73.62624
774.0928	76.23785
774.2415	74.92683
774.3901	72.06927
774.5388	69.25564
774.6874	76.10921
774.8361	73.23647
774.9847	71.3818
775.1334	76.03049
775.282	76.93741
775.4305	70.96776
775.5792	72.48378
775.7277	71.18799
775.8763	71.48968
776.0249	75.75803
776.1735	74.37778
776.322	72.3403
776.4705	74.79562
776.6191	70.77452
776.7676	71.69421
776.9161	71.3617
777.0646	72.33271
777.2131	76.96282
777.3616	69.35868
777.5101	71.15949
777.6585	73.40542
777.8069	68.33315
777.9554	69.27107
778.1038	70.93144
778.2523	65.73843
778.4007	71.35014
778.5491	73.42109
778.6974	71.96099
778.8459	67.13739
778.9942	67.87703
779.1426	70.05148
779.291	77.08723
779.4393	77.47195
779.5876	67.23582
779.736	65.79587
779.8843	66.92638
780.0326	67.33575
780.1809	69.43204
780.3292	70.48721
780.4775	66.75851
780.6257	74.89724
780.774	67.73534
780.9222	68.87631
781.0704	73.74876
781.2187	71.13215
781.3669	75.41971
781.5151	72.91882
781.6633	71.51085
781.8115	71.12733
781.9597	74.04856
782.1078	68.22122
782.256	72.24801
782.4042	68.26955
782.5523	70.28941
782.7004	70.80689
782.8486	66.34916
782.9967	64.99287
783.1448	65.2123
783.2929	71.32131
783.441	63.93505
783.5891	63.35524
783.7371	64.58989
783.8851	64.47855
784.0332	66.6863
784.1812	68.71844
784.3293	64.91488
784.4773	68.46177
784.6253	74.98184
784.7733	70.62288
784.9213	67.4999
785.0692	69.28358
785.2172	69.65368
785.3652	62.91581
785.5131	65.12777
785.6611	66.46442
785.809	61.93087
785.9569	59.21511
786.1048	60.40732
786.2527	59.3819
786.4006	66.12543
786.5485	62.54209
786.6964	61.9402
786.8442	63.00614
786.9921	63.96706
787.1399	66.53858
787.2877	65.56511
787.4355	70.75525
787.5833	61.31013
787.7311	64.95376
787.8789	64.88832
788.0267	68.64052
788.1745	68.09385
788.3223	66.97038
788.47	64.92033
788.6177	63.56707
788.7654	62.72316
788.9132	65.38769
789.0609	60.82077
789.2086	64.14594
789.3563	62.65966
789.504	57.14131
789.6517	60.61644
789.7993	64.53645
789.947	62.17376
790.0946	58.46698
790.2422	59.91362
790.3898	58.42958
790.5375	56.14675
790.6851	61.88814
790.8326	61.47395
790.9802	60.093
791.1278	60.39642
791.2754	61.07389
791.423	66.01855
791.5705	66.88039
791.718	65.37181
791.8655	58.58051
792.0131	58.05204
792.1606	62.55436
792.308	57.45296
792.4556	58.94625
792.603	65.12514
792.7505	59.04866
792.8979	58.00788
793.0454	54.97234
793.1928	57.54189
793.3403	59.09513
793.4877	60.1708
793.6351	57.59412
793.7825	59.151
793.9299	59.69718
794.0772	61.84435
794.2246	63.78093
794.3719	59.97255
794.5193	52.95518
794.6666	56.81334
794.814	61.07932
794.9613	59.59995
795.1086	59.7556
795.2559	56.91222
795.4032	56.13563
795.5505	60.63271
795.6978	55.99831
795.845	61.0051
795.9922	61.39287
796.1395	60.2732
796.2867	54.36069
796.4339	54.57334
796.5811	58.10505
796.7283	59.60583
796.8755	60.10731
797.0227	56.80016
797.1699	58.03167
797.317	50.40786
797.4642	55.89677
797.6113	57.98801
797.7584	55.70145
797.9056	59.35204
798.0527	53.53664
798.1998	53.784
798.3469	50.66478
798.494	57.82226
798.641	57.57141
798.7881	57.78299
798.9351	56.53602
799.0822	58.55313
799.2292	56.02815
799.3762	56.80201
799.5232	56.24717
799.6702	55.51462
799.8172	52.37866
799.9642	53.14973
800.1111	53.5952
800.2581	55.56695
800.4051	55.02506
800.552	55.62608
800.6989	56.0115
800.8458	55.38249
800.9927	54.72054
801.1396	57.00515
801.2866	57.1538
801.4334	52.22798
801.5803	51.98762
801.7272	49.29206
801.874	56.50987
802.0209	53.20757
802.1677	60.83334
802.3145	59.93932
802.4613	53.40615
802.6081	49.3349
802.7549	52.20876
802.9017	52.70926
803.0485	49.88212
803.1952	53.87581
803.342	55.90207
803.4887	57.26612
803.6354	53.23802
803.7822	51.30808
803.9289	49.82635
804.0756	50.71196
804.2223	52.15203
804.369	56.84429
804.5156	54.18813
804.6623	50.96883
804.8089	52.13072
804.9556	54.70319
805.1022	53.19305
805.2488	54.31783
805.3954	56.62842
805.542	55.33076
805.6886	53.36366
805.8352	47.47054
805.9818	51.81729
806.1283	53.4882
806.2749	52.78753
806.4214	51.54337
806.5679	51.17031
806.7145	51.22233
806.861	49.28864
807.0074	49.5529
807.154	46.66631
807.3004	51.80619
807.4469	50.08357
807.5934	50.20094
807.7398	50.69022
807.8862	52.42866
808.0327	52.57288
808.1791	48.64852
808.3255	50.53235
808.4719	50.89785
808.6183	50.69463
808.7647	52.02514
808.9111	48.68563
809.0574	52.63996
809.2037	49.18264
809.3501	44.22879
809.4965	46.12568
809.6428	43.98386
809.7891	48.91327
809.9354	48.36978
810.0817	49.19212
810.2279	52.0157
810.3742	48.18907
810.5204	48.69065
810.6667	48.09263
810.8129	47.78562
810.9592	46.54486
811.1054	51.21594
811.2516	46.44085
811.3978	45.6208
811.5439	45.79617
811.6901	39.32642
811.8363	46.07439
811.9825	46.00505
812.1286	43.24437
812.2748	46.78574
812.4209	44.44376
812.567	42.25491
812.7131	47.74705
812.8592	42.85184
813.0053	43.02408
813.1514	40.67848
813.2974	42.2635
813.4435	43.68167
813.5895	50.10136
813.7356	40.30398
813.8816	44.50864
814.0276	42.19709
814.1736	38.07409
814.3196	40.19651
814.4656	39.96376
814.6116	45.50318
814.7576	39.73688
814.9035	41.66678
815.0494	44.52024
815.1954	45.5784
815.3413	40.8536
815.4872	34.15619
815.6331	44.312
815.779	37.82195
815.9249	40.57788
816.0707	38.92377
816.2166	38.491
816.3625	40.21415
816.5083	36.34562
816.6542	38.17125
816.8	40.43588
816.9458	36.39142
817.0916	37.44494
817.2374	38.1045
817.3832	40.27932
817.5289	44.32293
817.6747	38.34605
817.8204	38.7963
817.9662	34.64738
818.1119	37.95444
818.2576	36.89144
818.4034	39.95738
818.5491	40.9677
818.6948	41.55192
818.8405	36.81553
818.9861	38.64425
819.1318	34.80736
819.2774	37.58247
819.423	38.28239
819.5687	34.88926
819.7143	35.93317
819.8599	35.55019
820.0055	34.556
820.1511	35.97042
820.2967	38.73035
820.4422	43.92482
820.5878	45.08915
820.7333	41.33966
820.8788	42.51192
821.0244	39.49496
821.1699	39.67248
821.3154	41.5217
821.4609	38.26828
821.6064	41.26381
821.7519	38.2659
821.8973	35.96761
822.0428	35.23326
822.1882	40.5103
822.3337	33.41714
822.4791	29.26666
822.6245	32.27243
822.7699	31.06709
822.9153	28.62834
823.0607	28.99674
823.2061	30.9789
823.3514	29.86628
823.4968	35.16364
823.6422	37.128
823.7875	32.89733
823.9328	39.05453
824.0781	40.16967
824.2234	34.50467
824.3687	35.84763
824.514	37.07017
824.6592	37.63742
824.8045	35.25886
824.9498	36.2705
825.095	38.69244
825.2402	37.72287
825.3854	40.81357
825.5306	32.02396
825.6758	34.16541
825.821	33.95808
825.9662	37.71235
826.1114	40.98793
826.2565	35.38982
826.4017	33.91418
826.5468	38.67429
826.692	41.61377
826.837	39.94801
826.9822	35.88785
827.1273	35.98781
827.2723	31.65632
827.4174	32.983
827.5625	29.48256
827.7075	36.56892
827.8526	33.56375
827.9976	34.70112
828.1426	32.94352
828.2877	38.32157
828.4327	34.16367
828.5776	34.41551
828.7227	34.36946
828.8676	32.7625
829.0126	35.87492
829.1575	37.04076
829.3024	34.13611
829.4474	31.48759
829.5923	34.90222
829.7372	33.40926
829.8821	37.33447
830.027	34.72615
830.1719	37.2051
830.3168	32.89263
830.4616	38.79019
830.6064	33.5675
830.7513	30.37136
830.8961	36.85758
831.041	41.79971
831.1857	34.97285
831.3306	31.20338
831.4753	33.26028
831.6201	34.59222
831.7649	32.39671
831.9096	29.93582
832.0544	28.38334
832.1991	29.25628
832.3438	31.89861
832.4885	35.49451
832.6332	35.53735
832.778	29.10056
832.9226	30.681
833.0673	31.72532
833.2119	34.43064
833.3566	32.04588
833.5012	31.01487
833.6459	33.80416
833.7905	32.44028
833.9351	30.53732
834.0797	37.63944
834.2243	34.7117
834.3688	34.13005
834.5134	29.70905
834.658	33.65677
834.8026	37.63426
834.9471	35.82735
835.0916	32.15303
835.2361	35.48333
835.3806	34.47802
835.5251	33.47515
835.6696	34.054
835.8141	31.57707
835.9586	32.73395
836.103	34.87752
836.2474	32.05128
836.3918	36.37625
836.5363	39.48235
836.6807	40.38259
836.8251	36.12512
836.9695	32.52103
837.1138	35.7211
837.2582	33.32516
837.4026	36.6406
837.5469	37.62016
837.6913	36.18597
837.8356	36.42473
837.9799	37.05116
838.1242	34.00085
838.2686	34.16722
838.4128	36.59199
838.5571	40.58184
838.7014	34.43115
838.8456	33.06696
838.9899	36.47527
839.1341	30.93511
839.2783	32.86849
839.4225	39.81253
839.5667	35.74625
839.7109	35.10824
839.8551	32.61374
839.9993	31.77722
840.1434	32.70491
840.2876	33.40089
840.4317	35.15131
840.5759	31.92242
840.72	36.01068
840.8641	33.59697
841.0082	34.62271
841.1523	29.53676
841.2963	32.36749
841.4404	33.63174
841.5845	30.83116
841.7285	37.11117
841.8726	34.27642
842.0165	38.18073
842.1606	39.24664
842.3046	33.79023
842.4485	33.49908
842.5925	30.6787
842.7365	30.67871
842.8805	33.56694
843.0244	32.56279
843.1684	31.46223
843.3123	31.44681
843.4562	32.4538
843.6002	30.77409
843.744	35.3779
843.8879	35.09127
844.0318	32.65339
844.1757	33.58369
844.3195	29.45478
844.4634	32.26485
844.6072	29.29301
844.751	32.40153
844.8948	32.15006
845.0386	31.54802
845.1824	30.07769
845.3262	32.74707
845.47	32.97423
845.6138	35.08724
845.7575	33.56905
845.9012	33.06619
846.045	34.89862
846.1887	33.59028
846.3324	30.67549
846.4761	30.64455
846.6198	29.98718
846.7635	34.24007
846.9071	33.33657
847.0508	30.93962
847.1944	24.53272
847.3381	35.24936
847.4817	35.25774
847.6253	33.11444
847.7689	37.29271
847.9125	31.83795
848.0561	29.96147
848.1996	30.82453
848.3432	31.16462
848.4868	33.19973
848.6303	31.26821
848.7738	35.47802
848.9174	36.30685
849.0609	33.22743
849.2043	28.72258
849.3478	32.70953
849.4913	31.9753
849.6348	30.97822
849.7782	31.10829
849.9217	27.12241
850.0651	31.43025
850.2086	30.25239
850.3519	30.08634
850.4954	27.50204
850.6387	26.23868
850.7821	32.66776
850.9255	30.16584
851.0688	27.41084
851.2122	27.39434
851.3555	31.93215
851.4988	25.21246
851.6422	31.18399
851.7855	31.97833
851.9288	31.97384
852.0721	30.62393
852.2153	32.90559
852.3586	29.44684
852.5018	29.66729
852.6451	29.77414
852.7883	27.31964
852.9315	33.19271
853.0748	32.99979
853.218	27.62863
853.3611	25.68782
853.5043	28.21033
853.6475	28.67123
853.7906	30.3405
853.9338	25.92439
854.0769	26.4593
854.22	24.92793
854.3632	28.32462
854.5063	28.30077
854.6494	24.83172
854.7924	27.77349
854.9355	31.58739
855.0786	33.05493
855.2216	31.75887
855.3647	34.94819
855.5077	33.27464
855.6507	28.47421
855.7937	26.94133
855.9367	27.94972
856.0797	30.327
856.2227	28.05014
856.3657	27.43369
856.5086	26.38137
856.6516	30.75294
856.7945	28.96572
856.9374	29.1362
857.0803	28.98996
857.2232	26.59625
857.3661	27.25077
857.509	28.71703
857.6519	23.90854
857.7947	24.8766
857.9376	30.96153
858.0804	30.66681
858.2232	34.27565
858.366	31.15593
858.5089	30.01959
858.6516	28.03004
858.7944	24.12869
858.9372	29.50089
859.08	27.33761
859.2227	27.78265
859.3654	29.43323
859.5082	28.97607
859.6509	30.57873
859.7936	29.16398
859.9363	31.34514
860.079	26.80931
860.2217	26.11393
860.3643	26.07602
860.507	27.75395
860.6496	24.98679
860.7922	26.45749
860.9349	28.25454
861.0775	26.19604
861.2201	26.68986
861.3627	28.83157
861.5052	24.79389
861.6478	31.78061
861.7904	31.75221
861.9329	29.62978
862.0755	26.33311
862.218	23.8986
862.3605	27.32648
862.503	25.38667
862.6455	28.21106
862.788	24.60462
862.9305	25.30536
863.0729	29.11547
863.2154	24.6562
863.3578	25.50434
863.5002	29.894
863.6426	25.36769
863.7851	24.58824
863.9275	29.28381
864.0698	27.50274
864.2122	27.49747
864.3546	28.53114
864.4969	26.76225
864.6393	26.56674
864.7816	23.63511
864.924	24.46373
865.0662	25.1787
865.2086	27.23833
865.3508	23.62323
865.4931	27.22709
865.6354	20.40118
865.7776	24.25199
865.9199	25.33869
866.0621	21.05629
866.2043	23.68039
866.3466	19.71646
866.4888	25.97198
866.6309	22.70474
866.7731	25.8425
866.9153	23.1979
867.0574	22.67139
867.1996	27.59866
867.3417	23.35824
867.4839	25.06237
867.626	27.86624
867.7681	24.15423
867.9102	27.04371
868.0522	27.397
868.1943	28.65448
868.3364	28.27396
868.4785	26.28056
868.6205	24.4055
868.7625	25.90049
868.9045	25.51658
869.0465	17.97936
869.1885	21.5965
869.3305	27.8738
869.4725	24.738
869.6144	19.47586
869.7564	22.58105
869.8983	29.10062
870.0403	24.67978
870.1822	25.09094
870.3241	25.41623
870.466	27.28985
870.6079	29.03443
870.7498	25.0066
870.8916	20.83597
871.0335	24.51461
871.1754	27.5878
871.3171	23.17429
871.459	26.30066
871.6008	25.54856
871.7426	20.07306
871.8844	19.19876
872.0262	26.7618
872.1679	27.20883
872.3097	22.38304
872.4514	18.46675
872.5931	23.18145
872.7349	26.42555
872.8766	21.3808
873.0183	24.57576
873.16	25.47291
873.3017	24.75455
873.4434	21.9337
873.585	19.34003
873.7266	21.78158
873.8683	28.17952
874.0099	25.05201
874.1516	19.06928
874.2932	26.25956
874.4348	23.51337
874.5763	24.74473
874.7179	30.40993
874.8594	29.0873
875.001	24.62984
875.1425	25.85391
875.2841	22.28043
875.4256	22.01269
875.5671	17.41751
875.7086	24.54
875.85	21.56663
875.9915	24.43907
876.133	25.34417
876.2744	23.47075
876.4159	22.12558
876.5573	24.00041
876.6987	27.58256
876.8401	27.69502
876.9815	22.57515
877.1229	26.26444
877.2643	25.33889
877.4056	23.81001
877.547	21.96638
877.6884	18.93611
877.8297	24.68286
877.971	21.69314
878.1123	23.94625
878.2536	21.49627
878.3949	21.76028
878.5362	21.82406
878.6774	23.44985
878.8187	26.66305
878.9599	23.57584
879.1011	22.26978
879.2424	21.3482
879.3836	20.05117
879.5248	22.25337
879.666	25.70651
879.8071	23.01351
879.9483	23.76131
880.0895	28.01305
880.2306	23.65643
880.3718	21.42102
880.5129	22.51373
880.654	18.55989
880.7951	16.67748
880.9362	22.53053
881.0773	23.5588
881.2183	22.99077
881.3594	24.20185
881.5004	22.10977
881.6414	23.62656
881.7825	19.19029
881.9235	19.88244
882.0645	20.21969
882.2054	19.77138
882.3464	20.15193
882.4874	21.41291
882.6284	20.81775
882.7693	20.62984
882.9103	20.42918
883.0512	24.96983
883.1921	24.43875
883.333	24.68333
883.4739	19.14918
883.6147	23.03575
883.7556	20.12651
883.8965	23.5914
884.0374	19.82197
884.1782	16.34078
884.319	21.55698
884.4598	22.3613
884.6006	19.84499
884.7414	23.88255
884.8822	23.68044
885.0229	18.81251
885.1637	19.7288
885.3044	23.06264
885.4452	23.40542
885.5859	19.55427
885.7266	20.70947
885.8673	24.34343
886.008	19.29014
886.1487	21.3831
886.2894	17.71186
886.43	17.40286
886.5707	19.30313
886.7113	19.98368
886.8519	14.48741
886.9926	17.12581
887.1331	17.00179
887.2737	20.89143
887.4143	19.55478
887.5549	18.31464
887.6954	16.87163
887.836	20.3249
887.9765	22.55934
888.1171	22.0614
888.2576	22.81156
888.3981	22.96637
888.5386	22.32462
888.679	26.75335
888.8195	19.09925
888.96	22.36884
889.1004	23.22311
889.2408	16.26252
889.3813	13.31794
889.5217	21.5723
889.6621	23.88925
889.8025	25.97693
889.9429	23.98742
890.0833	22.4894
890.2236	15.73809
890.364	20.15136
890.5043	20.1616
890.6446	18.99523
890.7849	18.56385
890.9252	22.87929
891.0655	19.17488
891.2058	16.86185
891.3461	20.58303
891.4863	21.3511
891.6266	21.86815
891.7668	19.17899
891.907	23.55842
892.0472	16.07341
892.1874	17.07402
892.3276	21.23397
892.4678	20.56908
892.608	22.06847
892.7481	20.06405
892.8883	21.60717
893.0284	18.62938
893.1685	18.46741
893.3087	18.82695
893.4487	20.64502
893.5889	17.46704
893.7289	18.8442
893.869	22.98039
894.009	20.71682
894.1491	18.44327
894.2891	18.97045
894.4291	19.3928
894.5692	19.15282
894.7092	16.3924
894.8491	20.94219
894.9891	17.65481
895.1291	21.33644
895.269	15.50626
895.409	16.36486
895.549	17.91061
895.6888	20.92821
895.8288	21.70747
895.9687	17.67276
896.1086	16.49179
896.2484	14.87883
896.3883	18.85449
896.5281	18.61132
896.668	21.00169
896.8079	18.97497
896.9476	21.59581
897.0875	21.9024
897.2272	20.51828
897.3671	17.09656
897.5068	18.98465
897.6466	15.61467
897.7864	19.59642
897.9261	16.26859
898.0658	16.29242
898.2056	18.50691
898.3453	18.81034
898.4849	17.98717
898.6246	18.8748
898.7643	17.85201
898.904	17.16008
899.0436	16.59652
899.1833	12.84208
899.3229	14.80932
899.4625	15.72618
899.6021	15.36043
899.7417	17.50066
899.8813	16.36388
900.0209	17.95838
900.1605	18.15963
900.3	15.64901
900.4395	17.00387
900.579	15.88236
900.7186	13.26342
900.8581	14.49748
900.9976	21.12937
901.1371	16.20484
901.2766	17.10402
901.416	21.2308
901.5555	16.80926
901.6949	15.50264
901.8344	17.50957
901.9738	22.13285
902.1132	24.11247
902.2526	17.09624
902.3919	16.21398
902.5313	13.6319
902.6707	17.14386
