SPECTRUM DATA FILE
SpectrumCount:	1
PixelCount:	3648
UserName:	ToughBook User
SampleName:	
LightSource:	
Comments:	
DeviceName:	Qwave
DeviceManufacturer:	Broadcom
DeviceSerialNo:	11311

Name:	last spectrum
Date:	2024-05-02T14:49:28.9535265+02:00
ExposureTime:	0.02
TemporalAvg:	1
IntensityUnit:	normalizedCounts
CCDLoadLevel:	0.06400882
Temperature:	32.14944
DiagramColor:	200
ProcessingSteps:	335

Wavelength [nm]	Intensity1
334.421	27.17674
334.5891	23.16182
334.7573	24.00044
334.9254	26.6391
335.0935	24.02215
335.2616	29.32386
335.4297	30.37614
335.5978	30.21332
335.7659	26.74035
335.934	24.20804
336.1021	23.35811
336.2701	22.83643
336.4382	29.00928
336.6063	31.20587
336.7744	30.85484
336.9424	25.61807
337.1105	23.30603
337.2785	28.00172
337.4466	23.73576
337.6146	23.55379
337.7827	27.58884
337.9507	26.3644
338.1187	28.39912
338.2867	27.22279
338.4548	24.32717
338.6228	24.33186
338.7908	28.90152
338.9588	26.45063
339.1268	27.83719
339.2948	26.83384
339.4628	29.14661
339.6308	29.17572
339.7988	26.80409
339.9667	27.42956
340.1347	24.24176
340.3027	25.15595
340.4707	23.49085
340.6386	22.10619
340.8066	24.14813
340.9745	27.87463
341.1425	27.08587
341.3104	28.24346
341.4784	25.62173
341.6463	26.27971
341.8142	26.53455
341.9821	24.90195
342.1501	26.41031
342.318	30.3833
342.4859	29.745
342.6538	26.23863
342.8217	26.0937
342.9896	27.73417
343.1575	27.99435
343.3254	28.32512
343.4933	25.99113
343.6612	25.78008
343.829	25.93394
343.9969	31.30907
344.1648	33.41852
344.3326	30.99915
344.5005	27.79151
344.6683	28.25088
344.8362	25.94397
345.004	32.59064
345.1719	28.24155
345.3397	29.42072
345.5075	26.81368
345.6754	28.10499
345.8432	26.54333
346.011	30.11951
346.1788	26.76931
346.3466	28.93536
346.5144	33.34383
346.6822	31.416
346.85	28.64483
347.0178	26.96662
347.1856	27.31901
347.3534	25.67517
347.5211	31.37388
347.6889	26.918
347.8567	28.82749
348.0244	28.25031
348.1922	31.24317
348.3599	26.50421
348.5277	26.52068
348.6954	26.11464
348.8632	27.88392
349.0309	33.90956
349.1986	26.06423
349.3663	28.38931
349.5341	31.69994
349.7018	28.91536
349.8695	30.22473
350.0372	34.03524
350.2049	29.28552
350.3726	30.48337
350.5403	29.33842
350.7079	28.9863
350.8756	27.82586
351.0433	28.21549
351.211	29.6579
351.3786	28.18095
351.5463	29.00481
351.714	31.33974
351.8816	32.31706
352.0493	28.74451
352.2169	30.40372
352.3846	29.90381
352.5522	34.68333
352.7198	34.80225
352.8875	31.82479
353.0551	29.67679
353.2227	34.89731
353.3903	33.97137
353.5579	37.07132
353.7255	33.12622
353.8931	35.46725
354.0607	33.75445
354.2283	32.33192
354.3958	39.30455
354.5634	35.05364
354.731	33.81433
354.8986	28.80287
355.0661	28.14674
355.2337	32.84249
355.4012	33.50758
355.5688	30.25118
355.7363	29.36062
355.9039	35.70379
356.0714	32.80654
356.239	37.52406
356.4065	31.194
356.574	27.25473
356.7415	32.82798
356.909	31.8303
357.0765	32.60791
357.244	29.98716
357.4115	34.11847
357.579	31.9724
357.7465	36.19743
357.914	32.11267
358.0815	25.455
358.249	29.09024
358.4164	31.15277
358.5839	31.52302
358.7513	29.33522
358.9188	30.14622
359.0862	30.41928
359.2537	28.71887
359.4211	33.54834
359.5886	38.35424
359.756	31.57941
359.9234	32.37334
360.0909	33.63628
360.2583	32.65212
360.4257	33.20589
360.5931	35.56044
360.7605	32.36857
360.9279	34.12185
361.0953	31.55439
361.2627	29.86584
361.4301	32.78423
361.5974	37.49104
361.7648	35.24235
361.9322	35.17872
362.0995	30.66434
362.2669	34.1728
362.4343	38.22701
362.6016	34.79667
362.769	32.9813
362.9363	29.6203
363.1036	35.12269
363.271	31.79675
363.4383	32.36896
363.6056	34.36789
363.7729	41.26841
363.9402	39.21175
364.1075	37.89716
364.2748	39.59013
364.4421	34.66867
364.6094	36.7809
364.7767	40.22191
364.944	38.75308
365.1113	37.29094
365.2786	39.66378
365.4458	38.10874
365.6131	38.93217
365.7803	38.92855
365.9476	40.87004
366.1148	43.3917
366.2821	40.49262
366.4493	36.6476
366.6166	36.74024
366.7838	40.56005
366.951	39.81118
367.1182	39.25107
367.2855	36.06549
367.4527	33.66259
367.6199	35.12846
367.7871	39.65423
367.9543	41.3513
368.1215	34.16837
368.2886	34.46385
368.4558	39.58596
368.623	36.77382
368.7902	37.77665
368.9573	43.23929
369.1245	37.40591
369.2917	40.66066
369.4588	43.93249
369.6259	42.68676
369.7931	46.03709
369.9602	39.83253
370.1274	39.77112
370.2945	40.6975
370.4616	39.70311
370.6287	34.28079
370.7958	35.83628
370.963	40.409
371.1301	45.41308
371.2971	45.62156
371.4643	47.39473
371.6313	48.31824
371.7984	40.52346
371.9655	42.18602
372.1326	43.76418
372.2997	44.00441
372.4667	40.67458
372.6338	47.75854
372.8008	45.17743
372.9679	38.01449
373.1349	36.10741
373.3019	41.8048
373.469	39.627
373.636	39.04388
373.803	42.1706
373.9701	50.81403
374.1371	43.80009
374.3041	43.01817
374.4711	45.13258
374.6381	39.01026
374.8051	41.3614
374.9721	45.90774
375.1391	40.83444
375.3061	40.35997
375.473	50.24255
375.64	47.12836
375.8069	42.53017
375.9739	44.46894
376.1409	43.68544
376.3078	44.91098
376.4748	46.10363
376.6417	44.19692
376.8087	46.17259
376.9756	44.8137
377.1425	46.76255
377.3094	48.77151
377.4763	47.67566
377.6432	53.33226
377.8102	47.04511
377.9771	43.03344
378.144	44.79706
378.3109	48.82907
378.4777	49.03799
378.6446	48.87919
378.8115	43.06318
378.9784	47.85383
379.1452	45.52448
379.3121	43.52878
379.4789	41.23819
379.6458	40.43119
379.8127	46.34189
379.9795	47.48486
380.1463	47.4284
380.3131	47.1433
380.48	46.82612
380.6468	52.21161
380.8136	48.57181
380.9804	47.70858
381.1472	48.26461
381.314	45.84487
381.4808	46.97863
381.6476	49.86309
381.8144	44.8051
381.9812	41.15434
382.148	37.94063
382.3147	40.34275
382.4815	45.27246
382.6483	43.78238
382.815	41.90236
382.9818	40.02563
383.1485	40.04517
383.3153	46.70324
383.482	45.31161
383.6487	44.43534
383.8155	44.62162
383.9822	44.42299
384.1489	42.20531
384.3156	45.19633
384.4823	51.07486
384.649	49.70993
384.8157	53.30135
384.9824	51.59946
385.1491	48.8661
385.3158	52.26136
385.4825	49.77717
385.6491	50.79939
385.8158	43.70955
385.9825	46.57172
386.1491	50.82071
386.3157	50.41539
386.4824	52.53798
386.649	55.99968
386.8157	50.48947
386.9823	50.13939
387.1489	51.05788
387.3156	53.24045
387.4821	55.35849
387.6488	57.07967
387.8154	51.36562
387.982	48.88655
388.1486	51.15932
388.3152	53.38726
388.4818	49.85984
388.6483	47.9193
388.8149	55.28301
388.9815	53.38873
389.148	52.52339
389.3146	54.78904
389.4811	58.09217
389.6477	54.64022
389.8142	53.38845
389.9808	52.94364
390.1473	63.68663
390.3138	56.97486
390.4804	54.33748
390.6469	57.84473
390.8134	61.74564
390.9799	57.72966
391.1464	56.54233
391.3129	58.89427
391.4794	60.74373
391.6459	49.8574
391.8124	57.47484
391.9789	56.65347
392.1453	50.81156
392.3118	49.91444
392.4782	53.40799
392.6447	52.73024
392.8112	52.09908
392.9776	46.29722
393.144	43.26481
393.3105	44.40212
393.4769	45.29346
393.6433	45.44844
393.8098	50.8353
393.9762	49.42339
394.1426	52.38039
394.309	52.15144
394.4754	55.18394
394.6418	57.08639
394.8082	62.83477
394.9746	69.29195
395.141	67.22288
395.3073	65.63784
395.4737	65.11254
395.64	65.05762
395.8064	62.57458
395.9728	57.78902
396.1391	66.06039
396.3055	59.06023
396.4718	48.95955
396.6381	50.34593
396.8045	51.03104
396.9708	48.32302
397.1371	49.06133
397.3034	52.08621
397.4697	60.52036
397.636	67.10831
397.8023	75.8335
397.9686	70.39954
398.1349	76.27911
398.3012	69.59148
398.4675	66.11791
398.6337	73.01389
398.8	76.56
398.9662	78.3793
399.1325	75.06213
399.2988	73.97984
399.465	69.85143
399.6313	75.81573
399.7975	70.78426
399.9637	71.95043
400.1299	79.2123
400.2961	73.3829
400.4624	72.06041
400.6286	73.78139
400.7948	76.97445
400.961	80.68485
401.1272	77.05038
401.2934	77.41528
401.4595	74.84158
401.6257	80.66963
401.7919	79.16866
401.9581	80.47446
402.1242	75.95305
402.2904	77.39996
402.4565	78.95621
402.6227	71.98231
402.7888	75.85467
402.955	77.55706
403.1211	73.22308
403.2872	72.85941
403.4533	71.02316
403.6194	82.13004
403.7856	79.36407
403.9517	79.66194
404.1177	80.366
404.2838	77.99355
404.4499	76.19987
404.616	69.51267
404.7821	73.67265
404.9482	77.55957
405.1142	80.691
405.2803	82.81046
405.4464	77.62065
405.6124	78.41639
405.7784	81.35897
405.9445	82.61511
406.1105	76.0619
406.2766	75.76918
406.4426	72.01253
406.6086	75.11674
406.7746	82.20515
406.9406	82.20227
407.1066	80.01053
407.2726	82.66199
407.4386	83.73441
407.6046	83.11012
407.7706	83.1831
407.9366	88.21586
408.1025	87.79514
408.2685	89.11142
408.4344	84.21584
408.6004	85.02483
408.7664	93.57287
408.9323	94.78175
409.0983	101.5811
409.2642	92.48295
409.4301	87.72402
409.596	82.74866
409.762	83.62004
409.9279	82.73144
410.0938	83.3271
410.2597	80.93511
410.4256	82.75632
410.5915	88.90311
410.7574	91.62333
410.9232	92.60935
411.0891	91.97717
411.255	91.54836
411.4209	96.25294
411.5867	100.4228
411.7526	95.68279
411.9184	94.07487
412.0843	100.1387
412.2501	98.06345
412.4159	93.51132
412.5818	97.58942
412.7476	94.56288
412.9134	95.55627
413.0792	92.46717
413.245	94.43104
413.4108	93.01797
413.5766	95.49349
413.7424	97.33154
413.9082	104.5428
414.074	98.02306
414.2397	96.83057
414.4055	93.05553
414.5713	97.40368
414.737	97.52128
414.9028	94.57025
415.0685	98.67557
415.2343	94.8488
415.4	89.21303
415.5658	93.9401
415.7315	99.72249
415.8972	94.71745
416.0629	95.3278
416.2286	98.09234
416.3943	102.9693
416.56	98.52153
416.7257	102.1569
416.8914	98.87866
417.0571	99.33643
417.2228	100.3801
417.3884	94.88383
417.5541	89.57764
417.7198	95.76134
417.8854	97.91965
418.0511	98.26983
418.2167	99.57255
418.3824	92.3404
418.548	95.24203
418.7136	96.52625
418.8792	95.98922
419.0449	98.95692
419.2105	98.88395
419.3761	94.63731
419.5417	96.07719
419.7073	91.23903
419.8729	93.05977
420.0385	94.37025
420.204	97.59482
420.3696	100.6206
420.5352	97.11133
420.7007	102.8643
420.8663	107.7957
421.0319	109.1517
421.1974	104.0065
421.3629	110.3782
421.5285	105.7675
421.694	102.8166
421.8595	108.2893
422.0251	105.9338
422.1906	101.7706
422.3561	97.80457
422.5216	95.78265
422.6871	93.6681
422.8526	97.72512
423.0181	108.6491
423.1835	108.4428
423.349	109.9168
423.5145	104.8004
423.68	110.9497
423.8454	107.4142
424.0109	111.3914
424.1763	110.4936
424.3418	110.9937
424.5072	106.4678
424.6726	108.8496
424.838	108.5358
425.0035	113.2837
425.1689	110.5652
425.3343	115.8628
425.4997	112.4197
425.6651	109.5993
425.8305	106.6435
425.9959	100.252
426.1613	108.9552
426.3267	112.2994
426.492	112.9268
426.6574	117.1233
426.8228	113.49
426.9881	113.2843
427.1534	107.914
427.3188	100.5214
427.4841	104.4161
427.6495	113.0833
427.8148	116.1605
427.9801	115.4153
428.1454	108.5338
428.3107	111.6239
428.476	114.6192
428.6414	108.1884
428.8066	107.005
428.9719	105.9909
429.1372	103.4545
429.3025	108.6923
429.4678	107.0251
429.633	110.4525
429.7983	103.0948
429.9636	98.64685
430.1288	89.28298
430.294	87.24751
430.4593	89.18031
430.6245	97.67406
430.7897	91.92059
430.955	89.73318
431.1202	96.03822
431.2854	101.9259
431.4506	108.8529
431.6158	119.2602
431.781	126.077
431.9462	131.9135
432.1114	126.9517
432.2766	107.988
432.4417	98.62685
432.6069	104.0926
432.772	112.8913
432.9372	125.0889
433.1024	126.0979
433.2675	122.1859
433.4326	123.7903
433.5977	120.4875
433.7629	113.2532
433.928	102.176
434.0931	94.83379
434.2582	109.0009
434.4233	117.0903
434.5884	124.451
434.7535	126.3756
434.9186	124.8192
435.0837	120.7815
435.2488	116.8879
435.4138	117.6615
435.5789	123.3144
435.744	125.6264
435.909	127.9547
436.0741	131.9169
436.2391	138.1048
436.4042	140.461
436.5692	143.7178
436.7342	132.6392
436.8992	128.9881
437.0643	125.9724
437.2293	130.7805
437.3943	130.7045
437.5593	128.7626
437.7243	132.5873
437.8893	131.354
438.0542	131.3094
438.2192	128.1528
438.3842	119.077
438.5491	120.746
438.7141	125.1254
438.8791	122.5443
439.044	125.61
439.209	135.7492
439.3739	140.177
439.5388	142.9295
439.7037	135.889
439.8687	142.1522
440.0336	141.4973
440.1985	140.0878
440.3634	134.1158
440.5283	127.3159
440.6932	131.3425
440.8581	137.5893
441.0229	146.8898
441.1878	149.6593
441.3527	148.4349
441.5175	136.226
441.6824	138.5107
441.8472	140.6382
442.0121	147.4575
442.1769	148.5581
442.3418	148.9526
442.5066	145.477
442.6714	138.092
442.8362	142.6548
443.001	141.7807
443.1659	144.5418
443.3307	144.1942
443.4955	140.1682
443.6602	145.221
443.825	152.534
443.9898	153.8783
444.1546	148.1936
444.3193	148.1625
444.4841	145.5822
444.6488	142.8301
444.8136	148.5185
444.9783	151.6279
445.1431	156.3311
445.3078	149.9979
445.4725	145.3251
445.6372	136.0629
445.802	135.1067
445.9667	137.1704
446.1314	140.0068
446.2961	145.9878
446.4608	144.129
446.6255	155.618
446.7901	150.2964
446.9548	147.4452
447.1195	152.5647
447.2841	161.2599
447.4488	162.3363
447.6134	157.499
447.7781	157.9234
447.9427	156.283
448.1074	153.0111
448.272	149.3436
448.4366	152.776
448.6012	157.8934
448.7658	159.9723
448.9305	152.6311
449.095	149.9699
449.2596	151.1317
449.4242	149.7374
449.5888	153.434
449.7534	158.4662
449.9179	166.0262
450.0825	158.8663
450.2471	164.5651
450.4116	163.3843
450.5762	169.9442
450.7407	171.9577
450.9052	169.223
451.0698	167.8041
451.2343	162.8036
451.3988	168.2791
451.5633	169.1536
451.7278	164.551
451.8923	160.7523
452.0568	174.3762
452.2213	166.9315
452.3858	165.8886
452.5503	163.9505
452.7148	153.6908
452.8792	153.7668
453.0437	155.5272
453.2081	157.0449
453.3726	161.4937
453.537	161.0234
453.7015	174.2721
453.8659	171.8
454.0303	173.7447
454.1947	172.5265
454.3592	169.9028
454.5236	170.1236
454.688	169.7191
454.8524	165.302
455.0168	165.9528
455.1811	165.8742
455.3455	165.9114
455.5099	165.4426
455.6743	169.9981
455.8386	173.9769
456.003	171.5163
456.1673	182.5755
456.3317	175.9219
456.496	172.1866
456.6603	170.0318
456.8246	180.0502
456.989	175.6423
457.1533	179.42
457.3176	176.0612
457.4819	180.6876
457.6462	182.8281
457.8105	178.7011
457.9748	168.3798
458.1391	158.2459
458.3033	172.8528
458.4676	172.8143
458.6319	170.8182
458.7961	180.7815
458.9604	189.1555
459.1246	176.0297
459.2888	172.3722
459.4531	174.4771
459.6173	176.2555
459.7815	167.1421
459.9457	178.3586
460.11	178.6727
460.2741	176.5075
460.4384	177.5627
460.6025	178.3655
460.7667	178.9806
460.9309	176.5507
461.0951	175.2475
461.2592	172.3136
461.4234	172.1516
461.5876	179.457
461.7517	179.5421
461.9159	181.2463
462.08	179.3812
462.2441	181.8981
462.4082	183.4448
462.5724	179.1598
462.7365	176.8509
462.9006	180.3331
463.0647	185.5504
463.2288	184.057
463.3929	182.0703
463.557	177.6059
463.721	183.1694
463.8851	185.7129
464.0492	178.6099
464.2132	179.4363
464.3773	179.7186
464.5414	174.2748
464.7054	178.7719
464.8694	175.9554
465.0334	176.6061
465.1975	183.002
465.3615	178.9027
465.5255	178.2165
465.6895	184.9258
465.8535	191.5478
466.0175	191.0236
466.1815	179.1666
466.3455	180.0226
466.5095	177.2202
466.6734	168.9747
466.8374	169.934
467.0014	177.4476
467.1653	179.4082
467.3293	180.9631
467.4932	181.4973
467.6571	190.5952
467.8211	189.5063
467.985	179.6066
468.1489	178.7791
468.3128	183.7776
468.4767	194.0806
468.6406	190.2867
468.8045	188.9458
468.9684	188.6168
469.1323	189.9964
469.2962	194.7994
469.46	188.0332
469.6239	182.8071
469.7878	190.1441
469.9516	188.2512
470.1154	184.757
470.2793	179.5752
470.4431	180.9872
470.607	183.7599
470.7708	179.3693
470.9346	187.6493
471.0984	191.3821
471.2622	190.2877
471.426	192.4068
471.5898	194.0607
471.7536	194.3839
471.9174	192.9193
472.0811	193.2959
472.2449	204.5954
472.4087	198.4846
472.5724	192.2128
472.7362	193.221
472.8999	192.531
473.0637	194.3784
473.2274	191.3523
473.3911	195.7975
473.5548	192.4176
473.7185	192.7905
473.8822	194.9279
474.0459	196.1411
474.2096	200.1525
474.3733	195.196
474.537	195.163
474.7007	196.9308
474.8643	201.5356
475.028	202.7092
475.1917	204.3462
475.3553	195.4497
475.519	197.8079
475.6826	202.0889
475.8463	195.2927
476.0099	194.0915
476.1735	190.0505
476.3371	194.202
476.5007	187.0669
476.6643	186.3447
476.8279	188.2834
476.9915	193.3025
477.1551	188.5354
477.3187	189.276
477.4823	199.8773
477.6458	202.1443
477.8094	202.2108
477.9729	201.3355
478.1365	195.2883
478.3	193.7352
478.4636	193.7288
478.6271	194.0133
478.7906	190.853
478.9541	194.8268
479.1176	196.5202
479.2812	199.5706
479.4447	203.72
479.6082	201.2362
479.7716	196.2491
479.9351	194.306
480.0986	194.7851
480.2621	198.58
480.4255	191.4816
480.589	200.2581
480.7524	196.5996
480.9159	198.4049
481.0793	191.8673
481.2428	185.973
481.4062	198.8216
481.5696	199.1232
481.733	201.7648
481.8964	202.6041
482.0598	193.5288
482.2232	198.6384
482.3866	196.1857
482.55	195.3584
482.7134	193.5751
482.8768	191.2212
483.0401	195.979
483.2035	199.486
483.3668	199.6728
483.5302	197.6311
483.6935	194.7528
483.8568	197.4492
484.0202	192.8879
484.1835	187.3738
484.3468	192.3364
484.5101	195.4176
484.6734	194.1446
484.8367	193.5897
485	193.9053
485.1633	199.5954
485.3266	199.7922
485.4899	189.5295
485.6531	182.4715
485.8164	178.8884
485.9796	167.8403
486.1429	165.3389
486.3061	166.4487
486.4694	174.0447
486.6326	175.1366
486.7958	183.2296
486.959	185.734
487.1223	185.7856
487.2855	187.8913
487.4486	191.6293
487.6118	189.073
487.775	194.3621
487.9382	197.1949
488.1014	200.1094
488.2646	201.1069
488.4277	198.1722
488.5909	195.8081
488.754	192.3651
488.9171	200.3499
489.0803	191.2593
489.2434	200.6921
489.4066	203.9834
489.5697	210.1783
489.7328	213.3286
489.8959	210.9688
490.059	207.5016
490.2221	208.1544
490.3852	199.1098
490.5482	205.7848
490.7113	200.8504
490.8744	208.3925
491.0374	206.2765
491.2005	206.3105
491.3636	206.5242
491.5266	215.288
491.6896	208.725
491.8527	200.2317
492.0157	187.2158
492.1787	190.8332
492.3417	198.8834
492.5047	206.7517
492.6677	211.6985
492.8307	215.7471
492.9937	217.5537
493.1567	213.8145
493.3196	206.4889
493.4826	204.4764
493.6456	205.4818
493.8085	203.3899
493.9715	200.4006
494.1344	200.8109
494.2974	211.6673
494.4603	219.1931
494.6232	214.8477
494.7861	225.3888
494.949	220.4398
495.1119	209.5226
495.2748	208.8511
495.4377	208.0816
495.6006	202.1491
495.7635	201.9049
495.9264	194.8728
496.0892	202.0374
496.2521	217.9061
496.4149	220.595
496.5778	214.9806
496.7407	209.1235
496.9035	211.2074
497.0663	213.51
497.2291	209.4005
497.3919	215.8599
497.5547	218.9883
497.7176	215.8558
497.8804	214.0454
498.0432	211.4791
498.2059	207.0043
498.3687	200.9924
498.5315	202.8274
498.6942	206.0264
498.857	211.5893
499.0198	213.5224
499.1825	213.2814
499.3452	211.8558
499.508	210.0641
499.6707	214.7841
499.8334	213.8331
499.9962	213.7144
500.1589	210.2419
500.3216	206.086
500.4843	200.0889
500.6469	208.7824
500.8096	204.6986
500.9723	209.9428
501.135	207.0433
501.2976	203.9869
501.4603	208.6604
501.623	205.4271
501.7856	201.6498
501.9482	199.153
502.1109	205.6998
502.2735	207.0398
502.4361	209.0591
502.5987	213.8846
502.7614	217.1773
502.924	218.2458
503.0865	215.7757
503.2491	210.5188
503.4117	212.7443
503.5743	208.856
503.7368	210.1698
503.8994	207.4306
504.062	209.3439
504.2245	202.072
504.3871	210.2944
504.5496	217.5566
504.7121	213.1194
504.8746	218.8456
505.0372	213.0027
505.1997	210.027
505.3622	212.6597
505.5247	220.4301
505.6872	215.0247
505.8497	221.1906
506.0121	227.481
506.1746	224.3267
506.3371	222.7267
506.4995	216.4825
506.662	211.328
506.8244	218.4255
506.9869	226.517
507.1493	219.6555
507.3117	223.9108
507.4742	223.1133
507.6366	218.3876
507.799	216.3059
507.9614	214.417
508.1238	209.3783
508.2862	215.2787
508.4485	219.2032
508.6109	218.6579
508.7733	225.5199
508.9357	222.7139
509.098	226.0605
509.2604	226.4367
509.4227	227.3791
509.5851	224.89
509.7474	221.8051
509.9097	216.984
510.072	222.2849
510.2343	225.5287
510.3966	222.9607
510.5589	232.3999
510.7212	226.9199
510.8835	221.1594
511.0458	223.4478
511.2081	232.596
511.3703	230.6492
511.5326	227.7779
511.6949	228.4696
511.8571	224.8377
512.0193	229.8985
512.1816	231.5176
512.3438	226.5121
512.506	218.1924
512.6682	216.3205
512.8304	217.7993
512.9926	225.9454
513.1548	226.8998
513.317	221.0783
513.4792	223.5142
513.6414	228.2032
513.8035	218.6156
513.9657	218.3468
514.1279	215.428
514.29	214.9796
514.4521	217.5745
514.6143	217.481
514.7764	223.6504
514.9385	219.6258
515.1006	220.1044
515.2628	219.3445
515.4249	213.9678
515.587	225.2916
515.7491	228.0716
515.9111	228.6176
516.0732	229.3245
516.2353	218.4348
516.3973	214.0604
516.5594	206.5238
516.7214	197.2522
516.8835	199.1053
517.0455	191.7674
517.2076	197.8806
517.3696	200.1642
517.5316	210.6895
517.6937	224.6735
517.8557	223.6349
518.0176	219.6687
518.1796	207.0637
518.3416	198.6983
518.5036	194.4979
518.6656	202.91
518.8275	217.7097
518.9895	217.6168
519.1514	212.1394
519.3134	207.2786
519.4753	210.3151
519.6373	214.8355
519.7992	220.0999
519.9611	218.2617
520.123	228.5196
520.2849	228.5448
520.4468	224.5949
520.6087	217.0948
520.7706	222.7532
520.9325	221.7814
521.0944	219.9989
521.2562	228.3102
521.4181	232.812
521.58	227.1128
521.7418	220.0057
521.9036	220.835
522.0655	222.8781
522.2273	224.3925
522.3891	226.3004
522.551	215.9661
522.7128	215.5517
522.8746	210.4598
523.0363	217.385
523.1981	215.4576
523.3599	221.4427
523.5217	216.5234
523.6835	218.2294
523.8452	227.263
524.007	231.1938
524.1687	230.8199
524.3304	232.1901
524.4922	230.7834
524.6539	223.5556
524.8157	226.0437
524.9774	229.7509
525.1391	225.4398
525.3008	223.173
525.4625	227.0263
525.6241	221.972
525.7858	234.9451
525.9475	233.391
526.1092	222.2666
526.2709	223.6739
526.4325	216.9498
526.5942	206.7152
526.7558	210.4441
526.9174	208.3896
527.079	214.7023
527.2407	216.0875
527.4023	214.8462
527.5639	220.1533
527.7255	231.6073
527.8871	238.2535
528.0487	234.729
528.2103	222.3835
528.3718	221.3359
528.5334	235.6744
528.695	239.6109
528.8565	235.9297
529.0181	242.2053
529.1796	244.3717
529.3412	240.4995
529.5027	238.2899
529.6642	231.309
529.8257	230.355
529.9872	232.208
530.1487	236.1455
530.3102	235.32
530.4717	237.3286
530.6332	239.8188
530.7947	236.439
530.9562	243.8696
531.1176	241.9584
531.2791	239.4689
531.4405	249.6062
531.6019	245.6582
531.7634	247.3674
531.9248	240.1933
532.0862	243.3523
532.2477	240.5603
532.4091	233.2541
532.5704	234.1387
532.7319	224.9836
532.8932	222.053
533.0546	224.3271
533.216	229.0487
533.3774	236.5736
533.5388	238.695
533.7001	228.9851
533.8615	225.5682
534.0228	228.2863
534.1841	226.6523
534.3455	235.853
534.5068	231.0648
534.6681	231.8219
534.8293	230.8166
534.9907	232.1232
535.152	231.3327
535.3132	232.4528
535.4745	240.4894
535.6358	244.9908
535.7971	246.6982
535.9583	241.2395
536.1196	243.4955
536.2808	236.9385
536.4421	233.5155
536.6033	230.7585
536.7645	220.8698
536.9258	221.1819
537.087	227.0836
537.2482	226.9968
537.4094	233.3307
537.5706	234.3745
537.7318	240.6521
537.8929	237.2656
538.0541	236.2716
538.2153	235.3351
538.3764	232.2768
538.5376	234.3234
538.6987	235.84
538.8599	234.9698
539.021	236.2289
539.1821	227.3255
539.3432	226.321
539.5043	225.089
539.6655	229.4933
539.8265	228.0203
539.9876	230.9297
540.1487	225.2028
540.3098	227.5209
540.4708	228.6961
540.6319	221.2367
540.793	225.2076
540.954	226.5026
541.1151	226.1671
541.2761	230.767
541.4371	227.1988
541.5981	228.2722
541.7592	233.276
541.9202	232.0669
542.0812	228.2003
542.2422	230.0892
542.4031	231.628
542.5641	234.6013
542.7251	234.7965
542.886	229.2691
543.0471	221.5394
543.208	234.0264
543.369	233.6981
543.5298	228.4423
543.6908	226.4733
543.8517	232.1228
544.0126	237.1028
544.1736	234.5042
544.3345	238.1944
544.4954	226.6935
544.6563	222.1393
544.8171	230.2607
544.978	233.3058
545.1389	235.5899
545.2997	231.5561
545.4606	226.1752
545.6215	227.6568
545.7823	230.3686
545.9432	229.8347
546.104	230.6528
546.2648	234.9953
546.4256	237.185
546.5864	237.9308
546.7473	230.5549
546.908	231.827
547.0688	233.988
547.2296	233.1942
547.3904	227.9732
547.5511	224.4347
547.7119	223.8972
547.8727	228.1707
548.0334	231.0162
548.1942	234.4689
548.3549	234.7307
548.5156	239.3521
548.6763	235.9208
548.837	230.0588
548.9977	230.032
549.1584	233.725
549.3192	230.5155
549.4798	229.6033
549.6405	236.0815
549.8011	235.2545
549.9619	233.7047
550.1225	235.1322
550.2831	242.818
550.4438	245.3742
550.6044	246.2602
550.765	231.178
550.9257	231.2798
551.0863	235.4676
551.2469	232.4805
551.4075	235.3719
551.5681	234.7834
551.7287	238.5687
551.8893	237.9212
552.0498	227.1988
552.2104	235.4032
552.371	242.4768
552.5315	232.2705
552.6921	230.1905
552.8526	228.8338
553.0131	240.4467
553.1736	240.4404
553.3342	232.0952
553.4947	236.4737
553.6552	235.4457
553.8157	237.1664
553.9762	241.9331
554.1367	241.5261
554.2971	245.834
554.4576	237.9749
554.618	239.408
554.7785	242.4394
554.939	241.1263
555.0994	239.7548
555.2598	255.9155
555.4203	250.4425
555.5807	245.8509
555.7411	242.2587
555.9015	238.0368
556.0619	236.924
556.2223	237.358
556.3827	233.8957
556.5431	235.9143
556.7034	239.7354
556.8638	237.2874
557.0242	235.5188
557.1845	233.3868
557.3448	237.188
557.5052	235.2522
557.6655	240.5805
557.8259	238.8643
557.9861	230.2594
558.1465	235.7618
558.3068	235.9019
558.467	239.5526
558.6274	232.042
558.7877	230.3287
558.9479	235.4526
559.1082	236.1393
559.2684	237.3975
559.4287	228.9381
559.5889	230.0661
559.7491	237.4276
559.9094	233.6665
560.0696	228.745
560.2299	234.012
560.3901	235.1952
560.5502	242.4578
560.7104	249.8679
560.8707	253.8412
561.0308	249.1051
561.191	245.0465
561.3511	239.4097
561.5114	233.616
561.6714	235.11
561.8316	232.6248
561.9918	239.599
562.1519	246.0038
562.312	234.9831
562.4722	239.6823
562.6323	238.7787
562.7924	241.6461
562.9525	251.373
563.1125	249.7213
563.2726	248.3992
563.4327	250.0867
563.5928	241.8513
563.7528	234.1042
563.9129	240.989
564.0729	237.9615
564.233	234.4287
564.393	236.2177
564.553	239.0863
564.7131	245.1854
564.873	243.285
565.0331	245.0831
565.1931	240.2569
565.353	240.6565
565.5131	238.3908
565.673	234.8433
565.833	235.2705
565.9929	232.3997
566.1529	235.3393
566.3129	228.7569
566.4728	233.9379
566.6328	235.3144
566.7927	244.3221
566.9526	246.306
567.1125	246.2237
567.2724	243.0778
567.4323	244.2012
567.5922	246.0991
567.7521	238.1635
567.9119	244.4605
568.0718	240.8237
568.2317	238.6353
568.3915	236.789
568.5514	228.4417
568.7112	241.2094
568.871	240.9313
569.0309	238.4655
569.1907	233.2939
569.3505	239.8692
569.5103	237.3264
569.6701	235.6358
569.8299	241.8723
569.9897	239.248
570.1495	242.6944
570.3092	241.4707
570.469	235.6812
570.6287	238.6691
570.7885	238.219
570.9482	239.5513
571.108	229.2335
571.2677	233.1243
571.4274	240.9464
571.5871	248.3051
571.7468	245.5425
571.9066	249.4662
572.0662	248.9505
572.2259	247.4565
572.3856	251.4507
572.5452	250.6221
572.7049	255.1162
572.8646	254.4188
573.0242	255.8722
573.1838	249.1257
573.3435	246.9808
573.5031	251.1161
573.6627	256.1656
573.8223	264.2733
573.9819	261.7717
574.1415	257.8931
574.3011	253.2783
574.4607	253.1727
574.6203	254.8828
574.7798	257.5107
574.9394	260.6518
575.099	255.3625
575.2585	261.2871
575.418	255.4119
575.5776	256.8387
575.7371	249.2717
575.8966	251.8353
576.0562	255.5179
576.2156	251.3183
576.3751	255.1029
576.5346	253.5323
576.6941	254.7809
576.8536	255.322
577.0131	255.4808
577.1725	252.81
577.332	257.9698
577.4914	253.6818
577.6508	253.3546
577.8103	258.1606
577.9697	251.886
578.1291	247.6653
578.2885	253.5981
578.4479	252.5443
578.6073	257.3544
578.7667	254.7884
578.9261	256.2885
579.0854	250.1056
579.2448	249.703
579.4042	248.9733
579.5635	254.2218
579.7229	253.5885
579.8822	256.6116
580.0416	258.0803
580.2009	264.7423
580.3602	259.4122
580.5195	254.4336
580.6788	254.0905
580.8381	260.7263
580.9974	269.1671
581.1566	265.2444
581.3159	257.8701
581.4752	257.4833
581.6345	255.4524
581.7937	259.4909
581.9529	265.9887
582.1122	268.4668
582.2714	261.593
582.4306	265.5344
582.5898	267.4904
582.749	259.8316
582.9082	263.1611
583.0674	265.1055
583.2266	267.2278
583.3857	275.3007
583.5449	262.7035
583.7041	263.9567
583.8633	262.4184
584.0224	259.0993
584.1815	268.0435
584.3407	265.6027
584.4998	262.3246
584.6589	265.5625
584.818	261.9086
584.9771	268.8097
585.1362	268.1918
585.2953	262.4848
585.4544	259.5611
585.6135	267.5913
585.7725	269.4247
585.9316	266.7074
586.0906	262.7232
586.2497	265.7133
586.4087	263.8645
586.5677	271.0585
586.7267	276.1637
586.8858	270.2106
587.0448	264.4354
587.2038	262.6166
587.3628	263.8808
587.5218	269.8172
587.6807	267.719
587.8397	262.0604
587.9987	265.245
588.1577	268.235
588.3166	272.1117
588.4755	263.1479
588.6345	259.2549
588.7934	251.6642
588.9523	243.9432
589.1112	243.1037
589.2701	238.7496
589.429	243.9229
589.5879	254.1364
589.7468	251.857
589.9056	257.1636
590.0645	258.4183
590.2234	258.8557
590.3822	261.759
590.5411	266.5736
590.6999	265.2115
590.8588	262.8627
591.0176	269.4363
591.1764	278.8121
591.3352	261.9565
591.494	263.8062
591.6528	264.3714
591.8116	258.9529
591.9703	264.1483
592.1291	264.7269
592.2878	268.2264
592.4467	272.3724
592.6053	272.1069
592.7641	265.7747
592.9229	264.7964
593.0816	259.5748
593.2403	273.2294
593.399	271.3884
593.5577	267.1682
593.7164	272.9127
593.8751	279.3073
594.0338	284.2896
594.1924	270.9979
594.3511	270.2253
594.5098	271.4695
594.6684	268.5847
594.8271	263.4235
594.9857	270.7382
595.1443	272.1904
595.303	270.5269
595.4615	274.858
595.6202	264.4973
595.7787	268.7648
595.9374	269.4947
596.0959	278.6802
596.2545	285.5802
596.4131	280.3414
596.5717	275.0721
596.7302	276.6403
596.8887	277.7884
597.0473	276.2692
597.2058	278.8492
597.3644	285.8535
597.5229	276.8517
597.6814	279.4258
597.8399	278.8095
597.9984	278.8597
598.1569	273.7173
598.3154	273.5178
598.4738	277.7266
598.6323	279.6204
598.7908	280.5409
598.9492	280.831
599.1076	280.4731
599.2661	280.2569
599.4245	278.1475
599.5829	274.9765
599.7413	279.2028
599.8997	287.161
600.0581	282.509
600.2165	281.3951
600.3749	281.3269
600.5333	279.8963
600.6917	277.5938
600.85	277.8557
601.0084	285.618
601.1667	270.3267
601.325	270.0385
601.4833	279.5353
601.6417	280.5218
601.8	279.3082
601.9583	278.9186
602.1166	283.6282
602.2749	281.2538
602.4332	276.6429
602.5914	283.7241
602.7498	290.5512
602.908	286.049
603.0662	291.3583
603.2245	297.2197
603.3828	288.8343
603.541	284.3898
603.6992	292.8889
603.8574	291.0088
604.0156	284.3714
604.1738	285.7435
604.332	282.7884
604.4902	287.3899
604.6484	293.1538
604.8065	291.6435
604.9647	288.9878
605.1229	287.5106
605.281	281.4586
605.4391	291.4086
605.5973	289.9463
605.7554	278.2074
605.9135	283.5698
606.0717	285.9573
606.2297	286.79
606.3878	283.6328
606.5459	285.0071
606.704	283.1211
606.8621	281.1772
607.0201	281.9664
607.1782	288.021
607.3362	294.7803
607.4943	288.5559
607.6523	289.9389
607.8104	285.2318
607.9684	287.7571
608.1264	287.6043
608.2844	287.8462
608.4424	280.2292
608.6003	284.8072
608.7584	283.2891
608.9163	279.9795
609.0743	285.4855
609.2322	285.3241
609.3902	286.8731
609.5482	289.9633
609.7061	296.2858
609.864	284.1416
610.0219	286.192
610.1798	288.0864
610.3377	278.923
610.4956	279.3141
610.6535	287.2038
610.8114	283.8232
610.9693	287.5779
611.1271	292.0232
611.285	290.4225
611.4429	288.0667
611.6007	295.2331
611.7585	282.2805
611.9164	279.2847
612.0742	286.0414
612.232	287.2307
612.3898	281.1322
612.5476	282.5865
612.7054	280.2774
612.8632	288.4503
613.0209	281.4621
613.1787	279.1541
613.3365	278.9897
613.4942	277.6838
613.652	271.9233
613.8097	275.9849
613.9674	276.1918
614.1252	280.4614
614.2829	275.4201
614.4406	276.0291
614.5983	281.5327
614.756	281.9144
614.9136	288.3491
615.0714	286.465
615.229	279.7632
615.3867	283.7397
615.5443	278.3851
615.702	281.4246
615.8596	283.1645
616.0172	281.3785
616.1748	268.8151
616.3325	271.8568
616.4901	266.054
616.6476	273.1792
616.8052	279.3308
616.9628	269.4365
617.1204	264.4543
617.278	270.9468
617.4355	272.4193
617.5931	275.3725
617.7506	281.4328
617.9081	284.5058
618.0657	279.5984
618.2232	280.1434
618.3807	281.0077
618.5382	275.8691
618.6957	277.8884
618.8532	273.6335
619.0107	278.7972
619.1682	275.5856
619.3256	280.3203
619.4831	286.028
619.6406	277.234
619.798	284.928
619.9554	282.216
620.1129	283.633
620.2703	271.7682
620.4277	268.8638
620.5851	285.363
620.7425	278.8155
620.8998	276.4798
621.0573	275.3118
621.2146	274.5621
621.372	272.0484
621.5294	275.8502
621.6867	275.4887
621.8441	279.5752
622.0013	284.118
622.1587	264.6763
622.316	261.0512
622.4733	273.3002
622.6306	279.3139
622.7879	274.1801
622.9452	273.1441
623.1025	276.3081
623.2598	272.3573
623.4171	270.7425
623.5743	270.2069
623.7316	273.2571
623.8888	270.1799
624.046	269.0308
624.2032	276.905
624.3605	261.9707
624.5176	256.1711
624.6749	261.3404
624.8321	268.8304
624.9893	269.8597
625.1464	271.1398
625.3036	272.6638
625.4608	273.9495
625.6179	274.6879
625.7751	268.7428
625.9322	266.2867
626.0894	267.9546
626.2465	275.0933
626.4036	267.9838
626.5607	272.1416
626.7178	270.713
626.8749	274.3214
627.032	269.0072
627.189	273.165
627.3461	267.8258
627.5032	267.5207
627.6602	268.508
627.8173	266.8236
627.9743	260.5854
628.1313	253.8331
628.2884	256.9079
628.4454	263.2304
628.6024	264.5242
628.7594	269.3872
628.9164	272.6595
629.0734	265.616
629.2303	264.922
629.3873	268.7135
629.5443	271.963
629.7012	263.0559
629.8582	261.2602
630.0151	262.4229
630.172	262.5362
630.3289	256.4426
630.4858	262.5475
630.6428	267.2246
630.7996	267.8237
630.9565	265.793
631.1134	270.0309
631.2703	264.3292
631.4272	263.6751
631.584	264.2682
631.7408	263.7511
631.8977	254.9452
632.0546	266.4488
632.2114	270.1049
632.3682	265.969
632.525	267.1239
632.6818	271.0926
632.8386	258.8059
632.9954	259.6075
633.1522	263.203
633.3089	264.4527
633.4657	258.6588
633.6224	257.4502
633.7792	256.3228
633.9359	254.3638
634.0927	266.0993
634.2494	268.5996
634.4061	259.7629
634.5628	267.7494
634.7195	262.14
634.8762	265.9378
635.0329	261.0473
635.1895	273.0408
635.3462	267.0391
635.5029	266.1497
635.6595	260.2964
635.8162	256.4792
635.9728	256.1676
636.1295	261.7767
636.2861	257.2894
636.4427	267.5586
636.5992	264.7425
636.7559	266.1166
636.9124	256.1141
637.069	267.2965
637.2256	268.5931
637.3821	275.0581
637.5387	266.2686
637.6953	263.4338
637.8518	260.1485
638.0084	265.2992
638.1649	266.6293
638.3214	260.7795
638.4779	262.36
638.6344	263.2112
638.7909	269.0204
638.9474	271.0293
639.1038	253.9724
639.2603	255.4701
639.4167	259.3112
639.5732	264.4622
639.7297	259.7369
639.8861	258.1322
640.0425	251.067
640.199	249.5307
640.3553	255.4613
640.5118	254.9677
640.6682	256.9107
640.8245	256.3227
640.981	249.2218
641.1373	251.7126
641.2936	263.4532
641.45	255.6991
641.6064	249.1265
641.7627	254.6348
641.9191	250.1667
642.0754	248.2888
642.2317	257.106
642.388	261.5373
642.5443	250.5201
642.7006	257.9682
642.8569	255.4038
643.0131	257.8558
643.1694	253.6675
643.3257	254.3869
643.4819	254.2853
643.6382	250.232
643.7944	255.6186
643.9506	250.3082
644.1069	247.311
644.2631	253.9259
644.4193	257.9932
644.5754	251.0791
644.7316	257.6105
644.8878	259.6293
645.044	254.0362
645.2002	250.4978
645.3563	249.803
645.5125	244.7478
645.6686	237.8193
645.8248	248.1039
645.9809	248.6868
646.137	247.3072
646.2931	243.4841
646.4492	240.1614
646.6053	247.1024
646.7614	245.7098
646.9174	242.803
647.0735	241.5318
647.2296	245.156
647.3856	240.9822
647.5417	238.3116
647.6977	244.1283
647.8537	238.3881
648.0098	234.1849
648.1658	242.4703
648.3218	241.6059
648.4777	238.7525
648.6337	244.536
648.7897	242.779
648.9457	240.017
649.1016	242.0837
649.2576	232.8661
649.4135	232.6167
649.5695	228.1902
649.7254	233.9613
649.8813	236.6415
650.0372	237.6964
650.1932	234.5347
650.3491	238.2306
650.5049	243.6103
650.6608	244.044
650.8167	240.508
650.9725	241.4318
651.1284	241.9951
651.2842	236.7828
651.4401	231.0798
651.5959	237.025
651.7518	241.4553
651.9076	237.9414
652.0634	237.5804
652.2192	239.3712
652.3749	244.2908
652.5308	242.3878
652.6865	237.3516
652.8423	235.6602
652.998	232.8643
653.1538	232.0527
653.3096	241.2272
653.4653	239.7365
653.621	238.5432
653.7767	238.6088
653.9324	234.8842
654.0881	238.158
654.2438	238.949
654.3995	241.7855
654.5552	229.9764
654.7109	236.4623
654.8665	233.7733
655.0222	240.8912
655.1778	233.9878
655.3334	232.6761
655.4891	227.6582
655.6447	227.1465
655.8003	224.7674
655.9559	224.3004
656.1115	205.8509
656.2671	193.3291
656.4227	190.9802
656.5782	209.6474
656.7338	212.3332
656.8893	220.3277
657.0449	226.9733
657.2004	228.1282
657.356	226.8767
657.5115	227.8556
657.667	229.8428
657.8225	227.8027
657.978	231.5343
658.1335	232.9068
658.289	228.0727
658.4445	229.7151
658.5999	232.3386
658.7554	237.6198
658.9108	234.3685
659.0663	224.1789
659.2217	232.1602
659.3771	231.6117
659.5325	232.991
659.6879	233.3006
659.8433	238.2504
659.9987	235.539
660.1541	234.2011
660.3095	232.7977
660.4648	236.6288
660.6202	236.1301
660.7756	233.1394
660.9309	233.0854
661.0862	233.3366
661.2416	237.0742
661.3969	239.0861
661.5522	242.1378
661.7075	232.7669
661.8628	234.6871
662.0181	240.1976
662.1733	234.424
662.3286	233.6343
662.4839	229.4724
662.6391	232.2025
662.7944	240.5887
662.9496	236.9545
663.1048	229.7125
663.26	229.3329
663.4152	230.2648
663.5704	231.3727
663.7256	237.8074
663.8808	236.6162
664.036	232.0989
664.1912	235.1676
664.3463	232.4886
664.5015	237.645
664.6566	235.4391
664.8118	230.5697
664.9669	230.5624
665.122	233.2531
665.2771	238.7233
665.4322	232.7956
665.5873	230.68
665.7424	231.7344
665.8975	232.3736
666.0526	237.0371
666.2076	234.6757
666.3627	227.6935
666.5177	223.5678
666.6727	223.6584
666.8278	238.7321
666.9828	230.098
667.1378	222.0583
667.2928	227.5239
667.4478	228.7549
667.6028	221.5113
667.7578	222.1087
667.9127	219.82
668.0677	228.0058
668.2226	226.8512
668.3776	228.8956
668.5325	231.7927
668.6874	232.7629
668.8423	226.712
668.9973	227.0791
669.1522	225.6442
669.3071	223.5031
669.4619	223.5877
669.6168	224.1107
669.7717	217.4676
669.9265	220.984
670.0814	224.5545
670.2362	222.4029
670.3911	219.6937
670.5459	220.4261
670.7007	223.0162
670.8555	223.8304
671.0103	231.3676
671.1651	225.6901
671.3199	223.7841
671.4747	220.2038
671.6295	216.023
671.7842	221.0264
671.939	217.6691
672.0937	215.0569
672.2484	220.4559
672.4031	220.2513
672.5579	227.5921
672.7126	223.5672
672.8673	225.0278
673.022	219.891
673.1767	218.6269
673.3314	222.0727
673.486	221.2642
673.6407	217.1003
673.7953	217.928
673.95	222.6112
674.1046	212.791
674.2592	218.6739
674.4138	221.3049
674.5684	217.5151
674.723	215.7482
674.8776	214.9938
675.0322	208.8397
675.1868	214.8934
675.3414	218.9181
675.4959	215.3683
675.6505	223.2089
675.805	223.0462
675.9595	213.972
676.1141	219.5514
676.2686	214.5
676.4231	211.7025
676.5776	211.9842
676.7321	211.9654
676.8866	220.9956
677.041	211.1345
677.1955	217.0057
677.35	214.3986
677.5044	214.2436
677.6589	216.7011
677.8133	217.4326
677.9677	218.5865
678.1221	217.0737
678.2766	209.4817
678.4309	204.6463
678.5853	212.3438
678.7397	208.0688
678.8941	210.2956
679.0485	212.2682
679.2028	213.2267
679.3571	214.2253
679.5115	209.601
679.6658	213.2459
679.8201	206.5804
679.9744	214.6528
680.1288	212.3662
680.2831	213.2844
680.4373	213.3589
680.5916	211.6467
680.7459	215.7058
680.9001	213.7592
681.0544	205.6992
681.2087	206.0971
681.3629	208.9723
681.5171	208.7177
681.6713	199.6214
681.8256	200.4585
681.9797	207.4606
682.134	208.2922
682.2881	205.7918
682.4423	205.3162
682.5965	198.4851
682.7507	205.2177
682.9048	205.286
683.059	204.4615
683.2131	205.5584
683.3672	199.4094
683.5213	200.9558
683.6754	204.5469
683.8295	204.5267
683.9836	199.5164
684.1377	201.0199
684.2918	196.6749
684.4459	205.2816
684.5999	197.9782
684.754	195.9571
684.908	196.4353
685.062	199.3831
685.2161	200.9765
685.3701	201.6602
685.5241	195.6566
685.6781	191.3027
685.8321	190.6984
685.9861	200.2109
686.14	200.4824
686.294	195.6962
686.4479	195.6359
686.6019	187.1982
686.7559	180.0584
686.9098	169.2188
687.0637	164.5276
687.2176	160.0023
687.3715	163.7625
687.5254	163.0046
687.6793	169.381
687.8332	173.1272
687.9871	178.7442
688.1409	184.1371
688.2947	183.3366
688.4486	180.6373
688.6024	182.0682
688.7563	182.3392
688.9101	178.4958
689.0639	179.2802
689.2177	179.6374
689.3715	172.8976
689.5253	175.2013
689.6791	177.4932
689.8328	181.32
689.9866	178.2159
690.1403	178.2573
690.2941	182.4391
690.4478	187.6723
690.6015	180.9328
690.7552	177.6333
690.9089	177.986
691.0626	183.6656
691.2164	184.8572
691.37	187.3438
691.5237	186.4971
691.6774	184.2582
691.831	181.1327
691.9847	175.7077
692.1383	180.5014
692.2919	186.0129
692.4456	183.8058
692.5992	177.5534
692.7527	183.3544
692.9064	188.0974
693.0599	178.9937
693.2136	176.0768
693.3671	187.6619
693.5207	179.5431
693.6742	176.049
693.8278	177.0121
693.9813	178.0519
694.1348	172.627
694.2883	174.1976
694.4418	178.7027
694.5953	171.6618
694.7488	176.5835
694.9023	180.3356
695.0558	178.3973
695.2093	176.2542
695.3627	178.2898
695.5162	170.3678
695.6696	178.3004
695.8231	176.9365
695.9764	178.0023
696.1299	180.9235
696.2833	182.9101
696.4367	182.4706
696.5901	185.9975
696.7435	184.1878
696.8968	183.1935
697.0502	182.2923
697.2036	185.5325
697.3569	184.4282
697.5102	176.9361
697.6635	186.7508
697.8168	184.291
697.9702	178.4927
698.1235	178.9626
698.2768	180.6642
698.4301	179.8934
698.5833	183.9192
698.7366	180.4157
698.8898	174.3351
699.0431	180.2956
699.1964	178.1388
699.3495	173.5228
699.5028	175.8418
699.656	177.832
699.8092	173.8347
699.9624	179.7355
700.1156	176.2875
700.2688	176.1093
700.4219	174.9796
700.5751	177.205
700.7283	181.2894
700.8814	179.6661
701.0345	176.1479
701.1877	175.2378
701.3408	180.8466
701.4939	176.9476
701.647	179.3069
701.8001	177.4581
701.9532	169.3723
702.1063	178.806
702.2593	177.6726
702.4124	172.5609
702.5654	176.8431
702.7184	175.0961
702.8715	172.1852
703.0245	174.6838
703.1776	178.2742
703.3305	175.7939
703.4835	178.2988
703.6365	177.4272
703.7895	183.0273
703.9424	171.8715
704.0954	176.7161
704.2484	173.1428
704.4013	179.7348
704.5543	181.2658
704.7072	179.4029
704.8601	176.187
705.013	172.8101
705.1659	174.3041
705.3188	172.3035
705.4717	167.7741
705.6246	179.7662
705.7774	178.8979
705.9303	169.5327
706.0831	175.4562
706.236	176.1249
706.3888	185.292
706.5416	180.3915
706.6944	175.7811
706.8472	171.1303
707	172.7548
707.1528	173.6273
707.3056	170.8902
707.4583	177.6632
707.6111	181.5262
707.7639	172.3162
707.9166	175.966
708.0693	172.731
708.222	176.7493
708.3748	182.4366
708.5275	176.0304
708.6802	176.5091
708.8328	174.6502
708.9855	174.438
709.1382	168.6828
709.2909	168.0616
709.4435	173.2703
709.5962	172.095
709.7488	182.0516
709.9014	175.1012
710.054	174.7247
710.2067	173.9996
710.3593	176.3971
710.5118	179.7548
710.6644	174.8752
710.817	175.755
710.9695	171.9667
711.1221	168.4055
711.2747	173.9338
711.4272	168.9338
711.5797	162.9781
711.7322	167.5034
711.8848	167.8605
712.0373	163.2545
712.1898	167.2686
712.3422	166.4833
712.4948	166.5235
712.6472	172.302
712.7996	171.5658
712.9521	167.8495
713.1046	169.6131
713.257	172.7839
713.4094	171.5069
713.5618	172.0226
713.7142	173.6682
713.8666	170.6249
714.019	169.9677
714.1714	164.8496
714.3237	164.4035
714.4761	177.3954
714.6285	172.9456
714.7808	163.2414
714.9331	160.8902
715.0854	161.5347
715.2378	155.802
715.3901	166.0723
715.5424	169.0686
715.6947	169.4683
715.8469	165.0462
715.9992	167.6467
716.1515	168.0108
716.3037	167.3999
716.456	161.7141
716.6082	154.9157
716.7604	149.9104
716.9127	151.5544
717.0649	153.2322
717.2171	153.866
717.3693	146.7052
717.5214	143.7412
717.6736	145.8998
717.8258	141.7448
717.978	144.4269
718.1301	141.025
718.2822	145.1171
718.4344	146.9623
718.5865	145.9795
718.7386	142.592
718.8907	138.7242
719.0428	148.0298
719.1949	149.9262
719.3469	139.4243
719.499	140.9436
719.6511	139.2595
719.8031	142.7716
719.9551	142.8043
720.1072	135.2961
720.2592	135.1602
720.4112	137.839
720.5632	142.4361
720.7152	146.1443
720.8672	144.6303
721.0192	148.2619
721.1711	149.5261
721.3231	157.6272
721.475	157.9593
721.627	156.856
721.7789	155.6348
721.9308	152.2737
722.0828	156.1361
722.2347	161.884
722.3866	161.7878
722.5385	154.5893
722.6903	151.4139
722.8422	149.5319
722.9941	147.775
723.1459	150.0463
723.2977	145.113
723.4496	141.395
723.6014	139.632
723.7532	139.7004
723.905	147.6716
724.0568	144.3153
724.2086	143.4285
724.3604	137.6764
724.5121	141.2357
724.6639	141.1472
724.8157	143.1001
724.9674	144.0211
725.1191	143.4418
725.2709	143.7648
725.4226	137.1122
725.5743	140.7892
725.726	146.9574
725.8777	147.1951
726.0294	149.0085
726.181	148.9717
726.3327	139.0583
726.4844	139.7438
726.636	146.3229
726.7877	147.4938
726.9393	149.2885
727.0909	147.1824
727.2425	147.6585
727.3941	145.8861
727.5457	139.3326
727.6973	133.6721
727.8488	138.5566
728.0004	141.4227
728.1519	144.5537
728.3035	145.2035
728.455	146.0451
728.6066	145.2726
728.7581	143.9479
728.9095	139.2275
729.0611	140.8093
729.2126	134.1859
729.364	142.2067
729.5155	143.0983
729.667	142.9201
729.8184	150.2597
729.9698	141.3079
730.1213	141.524
730.2727	135.5286
730.4241	140.0991
730.5756	140.6055
730.7269	140.7334
730.8784	140.3699
731.0297	139.6424
731.1811	139.0248
731.3325	138.0035
731.4838	144.3883
731.6351	140.1005
731.7865	138.4364
731.9378	142.7854
732.0891	146.1391
732.2404	148.2507
732.3917	147.0788
732.543	146.8457
732.6943	146.1641
732.8456	145.6797
732.9968	151.2383
733.1481	144.9268
733.2993	144.1697
733.4506	147.0425
733.6018	146.0071
733.753	148.6604
733.9042	152.5399
734.0554	159.0613
734.2066	158.1266
734.3578	147.3209
734.509	145.0912
734.6602	142.2147
734.8113	143.5893
734.9624	144.5177
735.1136	145.6775
735.2647	145.5536
735.4158	145.6181
735.5669	146.8788
735.718	148.3879
735.8691	146.0415
736.0201	143.8661
736.1713	141.1079
736.3223	139.9288
736.4733	143.6215
736.6244	144.0782
736.7755	140.0986
736.9265	136.0788
737.0775	149.0125
737.2285	144.9627
737.3795	146.8845
737.5305	151.8731
737.6815	151.0987
737.8324	150.8285
737.9834	146.5354
738.1343	140.1458
738.2853	146.3365
738.4362	145.7213
738.5871	146.8586
738.738	141.0102
738.8889	142.5699
739.0399	139.256
739.1907	137.1608
739.3416	145.3001
739.4925	140.5631
739.6433	140.9498
739.7942	138.4895
739.945	143.8905
740.0958	143.926
740.2467	144.3085
740.3975	142.2481
740.5483	147.0851
740.6991	143.2788
740.8499	145.1981
741.0007	139.9175
741.1514	147.0971
741.3022	142.9551
741.4529	140.5186
741.6036	143.7159
741.7544	146.9904
741.9051	146.9255
742.0558	146.3987
742.2065	140.485
742.3572	137.64
742.5079	140.6223
742.6586	145.6641
742.8093	142.4258
742.9599	143.2814
743.1105	144.7583
743.2612	145.8694
743.4118	146.2625
743.5624	141.7994
743.7131	141.7119
743.8636	135.7102
744.0142	136.9951
744.1648	134.3596
744.3154	137.3794
744.4659	139.9404
744.6165	142.3943
744.767	136.2719
744.9176	141.7031
745.0681	135.3544
745.2186	138.8255
745.3691	137.4272
745.5197	136.8915
745.6702	140.7983
745.8206	138.3528
745.9711	139.2571
746.1215	139.9181
746.272	135.232
746.4224	133.6624
746.5729	138.829
746.7233	140.2016
746.8737	136.3915
747.0241	136.073
747.1745	132.5053
747.3249	138.747
747.4753	133.9666
747.6257	137.8551
747.776	138.4814
747.9264	134.6468
748.0767	134.1106
748.2271	137.3806
748.3774	138.0169
748.5276	138.4129
748.678	133.5101
748.8282	135.3169
748.9786	132.1382
749.1288	132.1139
749.2791	128.5751
749.4294	126.8354
749.5796	132.0742
749.7299	130.8235
749.8801	127.4898
750.0303	130.045
750.1805	129.93
750.3307	133.7249
750.4809	135.2366
750.6311	127.4597
750.7813	127.1496
750.9314	129.3393
751.0816	125.3884
751.2318	131.238
751.3818	130.4212
751.532	127.7903
751.6821	130.5552
751.8322	128.7263
751.9823	131.9275
752.1324	126.3702
752.2825	125.0786
752.4326	124.8614
752.5826	127.4925
752.7327	131.2402
752.8827	127.5976
753.0327	127.5835
753.1827	124.2501
753.3328	124.6709
753.4828	124.3558
753.6328	126.47
753.7828	130.9187
753.9327	127.259
754.0827	123.5768
754.2327	129.9178
754.3826	128.3599
754.5325	125.8314
754.6825	125.0295
754.8324	126.2048
754.9823	127.9607
755.1322	126.2299
755.2821	118.0413
755.432	122.1883
755.5818	124.1065
755.7318	117.9914
755.8816	118.417
756.0314	118.506
756.1813	119.7723
756.3311	124.1475
756.4809	126.854
756.6307	126.7938
756.7805	127.2759
756.9303	124.9157
757.0801	117.8029
757.2299	118.1915
757.3796	117.7357
757.5294	117.4392
757.6791	115.6199
757.8289	121.4094
757.9786	124.1536
758.1283	122.8885
758.278	117.8728
758.4277	118.9642
758.5773	118.3629
758.7271	122.365
758.8767	119.9263
759.0264	115.5848
759.176	114.1857
759.3256	104.2003
759.4753	89.83172
759.6249	81.52917
759.7745	77.8714
759.9241	73.99092
760.0737	66.48164
760.2233	69.49507
760.3729	63.97123
760.5224	64.99697
760.6719	62.17464
760.8215	61.53073
760.971	63.53561
761.1205	65.60802
761.2701	73.0066
761.4196	77.67301
761.5691	84.48294
761.7186	87.15088
761.868	91.54761
762.0175	98.14822
762.167	95.10509
762.3164	83.35555
762.4659	77.94901
762.6153	73.82683
762.7647	74.94007
762.9141	78.35928
763.0635	75.06955
763.2129	74.87412
763.3623	78.23211
763.5117	78.08855
763.661	78.14163
763.8104	75.05376
763.9597	80.61211
764.1091	84.63197
764.2584	81.22852
764.4077	83.535
764.557	81.95036
764.7063	82.9918
764.8556	88.37233
765.0049	87.38804
765.1541	91.71655
765.3034	87.98205
765.4526	89.07924
765.6019	90.24471
765.7511	88.43202
765.9003	94.19096
766.0496	95.81883
766.1987	94.18514
766.348	92.00018
766.4971	92.29044
766.6463	94.06892
766.7955	97.3466
766.9446	100.2153
767.0938	100.7539
767.2429	97.69095
767.392	100.8938
767.5411	104.1997
767.6902	103.8801
767.8394	105.2704
767.9884	103.2541
768.1375	101.2966
768.2866	104.8242
768.4356	98.19156
768.5847	103.1078
768.7337	100.9838
768.8828	99.46727
769.0317	94.78617
769.1808	99.37489
769.3298	96.19508
769.4788	103.0402
769.6277	100.3235
769.7767	105.019
769.9257	106.3363
770.0746	98.11205
770.2236	95.58224
770.3725	102.6433
770.5214	96.65592
770.6703	98.56599
770.8193	100.7099
770.9681	104.0872
771.1171	101.5465
771.2659	97.903
771.4148	103.4348
771.5637	98.97962
771.7125	101.5391
771.8613	98.81538
772.0101	98.22902
772.159	97.6954
772.3078	97.55357
772.4566	105.8045
772.6054	97.64182
772.7542	93.02003
772.903	97.68056
773.0517	97.26511
773.2004	100.4787
773.3492	101.6916
773.4979	95.7845
773.6467	99.56057
773.7953	94.38116
773.944	95.47087
774.0928	98.13342
774.2415	93.7094
774.3901	95.12642
774.5388	98.60619
774.6874	96.25851
774.8361	101.1299
774.9847	97.33089
775.1334	98.14202
775.282	93.42397
775.4305	94.42596
775.5792	97.55318
775.7277	97.43999
775.8763	94.77164
776.0249	93.62209
776.1735	91.55986
776.322	100.1229
776.4705	95.85078
776.6191	93.15253
776.7676	92.60029
776.9161	87.58932
777.0646	98.90308
777.2131	100.751
777.3616	99.31766
777.5101	91.96328
777.6585	89.88995
777.8069	94.47847
777.9554	95.36206
778.1038	90.41525
778.2523	89.52693
778.4007	94.81339
778.5491	95.11015
778.6974	91.78356
778.8459	90.39548
778.9942	91.5006
779.1426	89.13388
779.291	93.14697
779.4393	95.41879
779.5876	94.54328
779.736	90.05119
779.8843	92.15007
780.0326	92.19796
780.1809	89.46465
780.3292	89.63817
780.4775	85.41141
780.6257	87.49696
780.774	89.07178
780.9222	94.50127
781.0704	93.63487
781.2187	96.87712
781.3669	91.17902
781.5151	87.8756
781.6633	88.61507
781.8115	87.26779
781.9597	83.80295
782.1078	89.41241
782.256	88.55411
782.4042	94.36737
782.5523	91.78885
782.7004	91.04871
782.8486	91.83216
782.9967	95.23148
783.1448	87.65601
783.2929	88.10426
783.441	86.77879
783.5891	83.99751
783.7371	84.88062
783.8851	90.56625
784.0332	90.96317
784.1812	87.38809
784.3293	87.51785
784.4773	89.78905
784.6253	85.51824
784.7733	86.44137
784.9213	89.02827
785.0692	88.97305
785.2172	87.92319
785.3652	80.90178
785.5131	80.95162
785.6611	84.02244
785.809	83.34758
785.9569	86.70303
786.1048	83.52441
786.2527	84.71694
786.4006	85.5915
786.5485	83.02708
786.6964	85.57053
786.8442	84.96629
786.9921	82.85951
787.1399	85.54295
787.2877	83.57214
787.4355	80.78865
787.5833	84.44633
787.7311	88.22925
787.8789	84.46436
788.0267	78.32033
788.1745	81.99357
788.3223	87.66155
788.47	87.83841
788.6177	79.51331
788.7654	82.30849
788.9132	85.2905
789.0609	84.65362
789.2086	79.23741
789.3563	79.92529
789.504	83.2811
789.6517	80.5063
789.7993	81.66502
789.947	85.34522
790.0946	79.56566
790.2422	78.57207
790.3898	82.379
790.5375	83.19469
790.6851	80.10504
790.8326	85.50262
790.9802	81.13589
791.1278	85.92537
791.2754	87.17486
791.423	79.9128
791.5705	85.81862
791.718	81.8541
791.8655	80.76836
792.0131	79.53783
792.1606	83.45194
792.308	80.19533
792.4556	81.50954
792.603	84.49216
792.7505	80.19057
792.8979	73.18836
793.0454	76.89182
793.1928	78.35629
793.3403	78.81931
793.4877	78.3922
793.6351	79.3443
793.7825	78.9208
793.9299	80.91145
794.0772	81.64518
794.2246	83.44692
794.3719	78.19906
794.5193	76.20665
794.6666	75.62021
794.814	73.49303
794.9613	79.83533
795.1086	79.12827
795.2559	74.79396
795.4032	79.10422
795.5505	74.00894
795.6978	76.75716
795.845	80.87991
795.9922	75.15639
796.1395	74.91774
796.2867	73.79758
796.4339	73.90659
796.5811	72.65894
796.7283	73.67255
796.8755	74.56702
797.0227	75.66127
797.1699	77.00385
797.317	76.4185
797.4642	78.89416
797.6113	73.55242
797.7584	74.71721
797.9056	79.99997
798.0527	78.97152
798.1998	77.81094
798.3469	75.56371
798.494	74.47604
798.641	71.68314
798.7881	74.8243
798.9351	74.85955
799.0822	72.38027
799.2292	75.44323
799.3762	77.91405
799.5232	76.66893
799.6702	73.06719
799.8172	72.19444
799.9642	71.54321
800.1111	72.67548
800.2581	73.17835
800.4051	73.54792
800.552	73.17218
800.6989	72.17237
800.8458	70.15646
800.9927	69.65751
801.1396	69.3808
801.2866	69.25362
801.4334	77.3703
801.5803	72.99748
801.7272	73.67039
801.874	76.58969
802.0209	70.99768
802.1677	72.99408
802.3145	74.3763
802.4613	69.44051
802.6081	71.5723
802.7549	71.62251
802.9017	68.77908
803.0485	67.31895
803.1952	68.85623
803.342	69.43457
803.4887	71.67108
803.6354	74.20829
803.7822	69.70576
803.9289	65.44042
804.0756	67.09295
804.2223	72.48534
804.369	73.00854
804.5156	64.74025
804.6623	68.32612
804.8089	71.66269
804.9556	63.79382
805.1022	66.57352
805.2488	67.96995
805.3954	69.647
805.542	70.72082
805.6886	69.25597
805.8352	67.31196
805.9818	65.36446
806.1283	67.51704
806.2749	65.85648
806.4214	73.18967
806.5679	62.94255
806.7145	64.75974
806.861	64.35945
807.0074	64.53252
807.154	68.30991
807.3004	65.70718
807.4469	66.6211
807.5934	68.9985
807.7398	67.07694
807.8862	67.9055
808.0327	60.6085
808.1791	62.68053
808.3255	63.32385
808.4719	60.83208
808.6183	63.85448
808.7647	63.92212
808.9111	62.56915
809.0574	66.23815
809.2037	65.75027
809.3501	60.19483
809.4965	60.68519
809.6428	67.14922
809.7891	61.82875
809.9354	62.07322
810.0817	61.78893
810.2279	60.92364
810.3742	65.05587
810.5204	63.32962
810.6667	61.9346
810.8129	58.81987
810.9592	59.96314
811.1054	63.84032
811.2516	65.68467
811.3978	61.28021
811.5439	60.8405
811.6901	62.62177
811.8363	63.64415
811.9825	57.54249
812.1286	61.32883
812.2748	61.53425
812.4209	58.22715
812.567	61.63216
812.7131	56.45338
812.8592	59.74381
813.0053	61.53164
813.1514	57.12374
813.2974	60.75794
813.4435	56.3757
813.5895	53.70929
813.7356	58.12713
813.8816	56.58425
814.0276	58.2418
814.1736	58.20503
814.3196	55.2875
814.4656	57.04957
814.6116	52.66239
814.7576	55.10191
814.9035	52.78824
815.0494	50.40901
815.1954	51.96128
815.3413	53.99724
815.4872	53.25842
815.6331	55.49329
815.779	56.52451
815.9249	57.07635
816.0707	51.5568
816.2166	49.62072
816.3625	47.6799
816.5083	50.85509
816.6542	52.38581
816.8	51.6758
816.9458	52.85685
817.0916	57.57426
817.2374	52.67387
817.3832	55.58126
817.5289	57.45551
817.6747	54.79433
817.8204	48.78693
817.9662	47.40574
818.1119	52.58397
818.2576	54.08787
818.4034	50.24628
818.5491	51.17729
818.6948	54.25172
818.8405	50.11329
818.9861	59.02664
819.1318	51.28838
819.2774	53.049
819.423	51.40181
819.5687	49.70849
819.7143	50.07833
819.8599	50.44743
820.0055	51.11592
820.1511	55.00964
820.2967	50.26795
820.4422	50.31431
820.5878	57.36855
820.7333	55.37635
820.8788	50.06781
821.0244	49.63407
821.1699	50.82285
821.3154	51.7959
821.4609	55.40776
821.6064	50.6275
821.7519	54.44957
821.8973	53.44391
822.0428	47.96479
822.1882	53.21548
822.3337	52.21311
822.4791	48.95245
822.6245	50.82486
822.7699	46.92958
822.9153	41.62503
823.0607	44.18869
823.2061	46.18031
823.3514	53.35344
823.4968	49.92709
823.6422	47.33259
823.7875	45.65374
823.9328	49.13511
824.0781	51.85146
824.2234	53.98636
824.3687	54.76194
824.514	54.51766
824.6592	48.75426
824.8045	46.11662
824.9498	49.9408
825.095	52.8297
825.2402	53.22642
825.3854	52.63899
825.5306	53.13762
825.6758	51.55258
825.821	46.31997
825.9662	48.21422
826.1114	52.28778
826.2565	48.36686
826.4017	51.73515
826.5468	49.56394
826.692	52.61356
826.837	53.30868
826.9822	51.92357
827.1273	47.6897
827.2723	48.64167
827.4174	49.87169
827.5625	45.58012
827.7075	49.95606
827.8526	47.44009
827.9976	51.41962
828.1426	49.00425
828.2877	46.40126
828.4327	46.40737
828.5776	50.3849
828.7227	46.89401
828.8676	49.34132
829.0126	48.69811
829.1575	51.34531
829.3024	49.23281
829.4474	47.12383
829.5923	45.12837
829.7372	48.77953
829.8821	48.45711
830.027	46.03037
830.1719	46.75196
830.3168	47.86531
830.4616	47.33736
830.6064	48.22154
830.7513	45.03188
830.8961	44.2935
831.041	49.03288
831.1857	42.78325
831.3306	40.92297
831.4753	47.26794
831.6201	47.85129
831.7649	47.21893
831.9096	44.12114
832.0544	48.18682
832.1991	46.10825
832.3438	51.79631
832.4885	56.65043
832.6332	51.64072
832.778	46.08902
832.9226	45.11995
833.0673	48.14002
833.2119	45.5029
833.3566	41.73867
833.5012	41.10511
833.6459	43.80492
833.7905	41.25944
833.9351	42.02366
834.0797	47.85297
834.2243	45.80262
834.3688	44.12588
834.5134	50.36372
834.658	45.74301
834.8026	48.25933
834.9471	45.45325
835.0916	48.45166
835.2361	48.52104
835.3806	45.21035
835.5251	45.31874
835.6696	47.48191
835.8141	45.42614
835.9586	43.03284
836.103	45.00217
836.2474	45.33672
836.3918	48.36031
836.5363	49.11399
836.6807	47.24638
836.8251	44.67928
836.9695	44.0508
837.1138	46.64704
837.2582	46.9963
837.4026	47.34074
837.5469	43.69325
837.6913	45.3288
837.8356	46.75757
837.9799	48.20813
838.1242	49.82211
838.2686	46.50613
838.4128	46.27215
838.5571	43.31694
838.7014	42.22396
838.8456	46.90973
838.9899	45.95215
839.1341	40.51169
839.2783	43.39901
839.4225	46.19484
839.5667	51.25838
839.7109	49.1458
839.8551	43.97285
839.9993	41.91541
840.1434	46.47292
840.2876	42.23538
840.4317	42.2859
840.5759	45.57962
840.72	45.94176
840.8641	46.68005
841.0082	48.20717
841.1523	46.1666
841.2963	46.52283
841.4404	44.05931
841.5845	42.03386
841.7285	46.22287
841.8726	44.03291
842.0165	44.60971
842.1606	44.01262
842.3046	42.75909
842.4485	46.90367
842.5925	45.68566
842.7365	46.42756
842.8805	45.40091
843.0244	48.64573
843.1684	44.09991
843.3123	45.64241
843.4562	44.28333
843.6002	44.03424
843.744	47.56335
843.8879	38.37379
844.0318	45.67403
844.1757	40.92473
844.3195	47.73352
844.4634	47.47235
844.6072	48.83309
844.751	45.71606
844.8948	36.03502
845.0386	39.54934
845.1824	40.53863
845.3262	41.32956
845.47	40.26827
845.6138	37.49807
845.7575	46.69998
845.9012	45.70142
846.045	45.77415
846.1887	48.66793
846.3324	44.74148
846.4761	40.08141
846.6198	43.23883
846.7635	44.44156
846.9071	42.25438
847.0508	40.85439
847.1944	39.33459
847.3381	43.714
847.4817	43.62454
847.6253	40.81644
847.7689	44.79885
847.9125	45.65981
848.0561	43.33263
848.1996	42.33209
848.3432	46.55095
848.4868	42.71404
848.6303	44.89629
848.7738	42.40984
848.9174	40.58863
849.0609	48.03777
849.2043	41.60024
849.3478	39.2622
849.4913	44.46303
849.6348	52.92118
849.7782	39.43921
849.9217	37.21161
850.0651	39.62627
850.2086	40.30166
850.3519	40.44058
850.4954	41.58261
850.6387	44.53666
850.7821	41.15684
850.9255	41.22435
851.0688	40.92306
851.2122	40.4209
851.3555	42.26858
851.4988	37.78912
851.6422	38.37335
851.7855	38.38487
851.9288	43.1717
852.0721	39.77241
852.2153	39.02765
852.3586	40.65909
852.5018	39.53217
852.6451	38.74709
852.7883	41.05035
852.9315	40.24956
853.0748	40.73251
853.218	38.09863
853.3611	39.59786
853.5043	42.8082
853.6475	38.86609
853.7906	38.88367
853.9338	37.52352
854.0769	33.29633
854.22	33.75177
854.3632	33.19834
854.5063	34.93313
854.6494	32.75916
854.7924	34.12761
854.9355	37.84389
855.0786	41.35772
855.2216	39.60796
855.3647	41.31665
855.5077	41.02905
855.6507	35.52404
855.7937	40.561
855.9367	39.99783
856.0797	37.09482
856.2227	34.88621
856.3657	38.63134
856.5086	38.48148
856.6516	39.88829
856.7945	41.70535
856.9374	37.65075
857.0803	35.54506
857.2232	38.7578
857.3661	36.02342
857.509	39.04906
857.6519	43.64381
857.7947	41.53439
857.9376	34.55429
858.0804	37.41885
858.2232	39.83272
858.366	35.16516
858.5089	35.10765
858.6516	39.51245
858.7944	38.1469
858.9372	36.8313
859.08	37.2988
859.2227	38.74511
859.3654	33.69176
859.5082	37.95055
859.6509	37.89686
859.7936	39.92713
859.9363	39.64808
860.079	43.24203
860.2217	36.53642
860.3643	34.08514
860.507	34.57906
860.6496	35.54708
860.7922	37.44833
860.9349	37.07782
861.0775	38.58067
861.2201	41.64185
861.3627	39.62924
861.5052	40.42379
861.6478	35.4812
861.7904	37.02732
861.9329	35.18259
862.0755	37.79904
862.218	35.52615
862.3605	33.27206
862.503	33.37325
862.6455	34.55651
862.788	36.53273
862.9305	34.97614
863.0729	37.90828
863.2154	37.28312
863.3578	33.71136
863.5002	32.40845
863.6426	33.66707
863.7851	36.05233
863.9275	35.35292
864.0698	34.67224
864.2122	28.14445
864.3546	31.32471
864.4969	31.53181
864.6393	36.83413
864.7816	36.34048
864.924	37.10003
865.0662	36.94298
865.2086	37.94481
865.3508	35.11066
865.4931	41.42738
865.6354	42.03798
865.7776	31.49418
865.9199	33.74128
866.0621	35.25884
866.2043	34.17877
866.3466	32.00602
866.4888	32.4261
866.6309	36.05325
866.7731	32.00151
866.9153	33.69334
867.0574	35.90201
867.1996	32.09828
867.3417	35.87416
867.4839	38.49992
867.626	31.9905
867.7681	35.43177
867.9102	29.37944
868.0522	35.15691
868.1943	35.71668
868.3364	33.75859
868.4785	32.66137
868.6205	30.52162
868.7625	35.96463
868.9045	37.44213
869.0465	34.84291
869.1885	33.79778
869.3305	31.18222
869.4725	31.41003
869.6144	30.99304
869.7564	34.5057
869.8983	33.40691
870.0403	36.02546
870.1822	31.48946
870.3241	33.01214
870.466	34.58502
870.6079	36.93476
870.7498	32.69217
870.8916	34.05408
871.0335	36.99725
871.1754	32.59944
871.3171	34.23677
871.459	28.74364
871.6008	28.95925
871.7426	33.91413
871.8844	33.00912
872.0262	35.04862
872.1679	33.69918
872.3097	29.95363
872.4514	28.81348
872.5931	32.17469
872.7349	27.67196
872.8766	25.01837
873.0183	29.76068
873.16	30.2445
873.3017	34.07984
873.4434	32.64843
873.585	33.62292
873.7266	29.74521
873.8683	34.85905
874.0099	30.25041
874.1516	27.11695
874.2932	32.43172
874.4348	33.50636
874.5763	31.70539
874.7179	33.70588
874.8594	28.14441
875.001	33.14001
875.1425	32.12192
875.2841	32.27992
875.4256	33.20924
875.5671	35.29921
875.7086	30.71863
875.85	31.98625
875.9915	33.49171
876.133	31.71524
876.2744	32.09882
876.4159	38.6611
876.5573	36.49028
876.6987	30.69941
876.8401	32.20415
876.9815	32.61319
877.1229	30.39739
877.2643	33.83547
877.4056	29.81889
877.547	32.98896
877.6884	32.92185
877.8297	33.01572
877.971	29.05236
878.1123	29.43353
878.2536	32.59346
878.3949	32.7358
878.5362	32.51239
878.6774	33.05025
878.8187	32.73496
878.9599	27.47395
879.1011	29.00854
879.2424	32.12629
879.3836	31.66087
879.5248	25.37278
879.666	27.62708
879.8071	30.07648
879.9483	25.38258
880.0895	30.92736
880.2306	28.74679
880.3718	33.63679
880.5129	28.31886
880.654	23.96398
880.7951	29.68262
880.9362	29.89969
881.0773	27.06084
881.2183	29.57316
881.3594	31.71239
881.5004	30.82381
881.6414	28.94183
881.7825	25.5839
881.9235	27.75243
882.0645	27.37137
882.2054	32.37012
882.3464	36.0826
882.4874	29.7523
882.6284	32.71975
882.7693	30.96418
882.9103	32.72258
883.0512	30.05935
883.1921	26.34962
883.333	30.35568
883.4739	27.77545
883.6147	33.30042
883.7556	30.26233
883.8965	26.80461
884.0374	31.10003
884.1782	32.83786
884.319	27.60928
884.4598	25.85839
884.6006	24.90397
884.7414	27.77226
884.8822	25.99388
885.0229	29.09477
885.1637	29.62482
885.3044	24.49927
885.4452	30.64043
885.5859	30.56226
885.7266	25.59867
885.8673	26.1817
886.008	29.53339
886.1487	28.26847
886.2894	32.71873
886.43	30.12723
886.5707	31.14035
886.7113	29.86013
886.8519	25.52203
886.9926	26.58492
887.1331	27.51464
887.2737	24.11524
887.4143	22.95924
887.5549	27.26196
887.6954	23.73206
887.836	26.29848
887.9765	25.0889
888.1171	27.07975
888.2576	29.10721
888.3981	24.70765
888.5386	19.82512
888.679	26.69616
888.8195	27.48779
888.96	25.66813
889.1004	28.29081
889.2408	30.14163
889.3813	23.42979
889.5217	27.3644
889.6621	26.80674
889.8025	30.55321
889.9429	25.42353
890.0833	29.63661
890.2236	35.05422
890.364	29.34674
890.5043	29.86337
890.6446	32.65609
890.7849	26.58659
890.9252	28.66779
891.0655	29.68885
891.2058	25.61191
891.3461	25.18143
891.4863	25.75771
891.6266	26.56528
891.7668	25.36496
891.907	26.66654
892.0472	27.54357
892.1874	34.02195
892.3276	31.13096
892.4678	26.82591
892.608	28.50661
892.7481	24.62813
892.8883	23.63346
893.0284	24.78603
893.1685	27.19694
893.3087	27.74777
893.4487	26.83624
893.5889	28.46772
893.7289	26.58955
893.869	25.69205
894.009	26.02744
894.1491	25.02097
894.2891	28.67276
894.4291	24.96217
894.5692	25.32615
894.7092	26.9073
894.8491	27.22731
894.9891	26.18681
895.1291	24.25043
895.269	26.47709
895.409	31.32099
895.549	24.18451
895.6888	21.9746
895.8288	26.98976
895.9687	29.77071
896.1086	23.84929
896.2484	24.69304
896.3883	28.72874
896.5281	24.27477
896.668	22.93687
896.8079	23.78489
896.9476	23.03646
897.0875	24.01763
897.2272	21.5626
897.3671	24.62325
897.5068	26.51026
897.6466	22.45171
897.7864	26.63943
897.9261	23.5097
898.0658	25.88272
898.2056	23.89425
898.3453	23.80493
898.4849	26.33775
898.6246	22.96305
898.7643	22.63488
898.904	18.20397
899.0436	15.37428
899.1833	18.32573
899.3229	24.73279
899.4625	23.70469
899.6021	24.54489
899.7417	27.26559
899.8813	24.07251
900.0209	23.88053
900.1605	26.79629
900.3	23.57412
900.4395	23.45074
900.579	24.60203
900.7186	22.07432
900.8581	20.81172
900.9976	19.59757
901.1371	21.32895
901.2766	21.14847
901.416	18.30439
901.5555	17.76619
901.6949	24.20575
901.8344	24.0282
901.9738	26.67345
902.1132	25.16747
902.2526	23.64001
902.3919	20.7728
902.5313	24.68235
902.6707	22.71249
