SPECTRUM DATA FILE
SpectrumCount:	1
PixelCount:	3648
UserName:	ToughBook User
SampleName:	
LightSource:	
Comments:	
DeviceName:	Qwave
DeviceManufacturer:	Broadcom
DeviceSerialNo:	11311

Name:	last spectrum
Date:	2024-05-02T14:49:16.2818447+02:00
ExposureTime:	0.02
TemporalAvg:	1
IntensityUnit:	normalizedCounts
CCDLoadLevel:	0.06454878
Temperature:	31.93027
DiagramColor:	200
ProcessingSteps:	335

Wavelength [nm]	Intensity1
334.421	26.52824
334.5891	23.60818
334.7573	26.57681
334.9254	30.28717
335.0935	31.18419
335.2616	35.62057
335.4297	29.38305
335.5978	25.62802
335.7659	23.83326
335.934	27.71927
336.1021	30.79858
336.2701	27.91542
336.4382	26.43883
336.6063	25.16539
336.7744	29.55199
336.9424	31.71602
337.1105	27.78175
337.2785	25.52642
337.4466	26.21555
337.6146	26.76334
337.7827	27.0963
337.9507	22.73201
338.1187	28.43919
338.2867	29.7967
338.4548	27.07193
338.6228	25.7515
338.7908	23.19494
338.9588	26.10016
339.1268	26.21649
339.2948	29.11685
339.4628	27.63245
339.6308	26.10645
339.7988	28.16745
339.9667	28.51991
340.1347	24.375
340.3027	28.16069
340.4707	26.45251
340.6386	23.75354
340.8066	22.56237
340.9745	27.52675
341.1425	27.9586
341.3104	26.28431
341.4784	24.61292
341.6463	29.10367
341.8142	23.79691
341.9821	28.22122
342.1501	24.99456
342.318	22.70156
342.4859	24.96816
342.6538	31.10666
342.8217	30.4891
342.9896	25.44927
343.1575	28.84013
343.3254	27.94835
343.4933	33.25186
343.6612	29.08629
343.829	29.64352
343.9969	31.14271
344.1648	34.8042
344.3326	25.62138
344.5005	28.33621
344.6683	28.69733
344.8362	26.38642
345.004	33.04434
345.1719	30.16264
345.3397	27.97543
345.5075	31.73952
345.6754	30.33299
345.8432	34.05204
346.011	31.59526
346.1788	31.45163
346.3466	32.28194
346.5144	26.13629
346.6822	28.15909
346.85	33.61308
347.0178	32.13853
347.1856	24.25688
347.3534	29.50912
347.5211	30.82274
347.6889	27.9418
347.8567	26.23207
348.0244	31.29413
348.1922	28.66742
348.3599	31.71127
348.5277	29.02247
348.6954	27.76648
348.8632	24.55729
349.0309	25.26453
349.1986	27.58788
349.3663	26.3053
349.5341	24.39836
349.7018	26.74562
349.8695	30.62452
350.0372	31.68597
350.2049	28.95697
350.3726	27.36002
350.5403	26.60722
350.7079	28.56274
350.8756	33.73049
351.0433	30.9773
351.211	30.16771
351.3786	24.7196
351.5463	27.90273
351.714	33.01158
351.8816	29.66499
352.0493	31.31876
352.2169	32.69444
352.3846	29.94598
352.5522	31.44978
352.7198	32.03812
352.8875	33.8698
353.0551	34.33867
353.2227	25.41763
353.3903	32.28353
353.5579	31.81653
353.7255	29.58065
353.8931	29.97539
354.0607	34.00003
354.2283	35.96935
354.3958	33.54194
354.5634	38.5001
354.731	36.3327
354.8986	35.51661
355.0661	31.77508
355.2337	34.91676
355.4012	35.39433
355.5688	39.91254
355.7363	34.61817
355.9039	34.11745
356.0714	32.03587
356.239	31.88744
356.4065	32.7462
356.574	35.90791
356.7415	31.66215
356.909	32.4646
357.0765	34.41808
357.244	33.45734
357.4115	30.81685
357.579	31.71432
357.7465	36.13488
357.914	33.59278
358.0815	31.04814
358.249	30.56018
358.4164	29.94816
358.5839	29.66468
358.7513	27.29281
358.9188	31.40203
359.0862	31.94708
359.2537	31.49206
359.4211	33.95037
359.5886	35.11069
359.756	40.879
359.9234	36.56253
360.0909	34.52879
360.2583	38.29304
360.4257	39.46515
360.5931	37.33105
360.7605	30.85015
360.9279	31.72574
361.0953	35.50205
361.2627	36.94986
361.4301	33.41656
361.5974	31.07973
361.7648	31.37722
361.9322	37.90086
362.0995	33.02799
362.2669	33.91992
362.4343	32.28164
362.6016	34.02361
362.769	36.6875
362.9363	36.50426
363.1036	37.52801
363.271	38.22813
363.4383	31.78916
363.6056	34.5122
363.7729	36.53148
363.9402	41.71875
364.1075	40.2075
364.2748	36.94524
364.4421	36.876
364.6094	37.74191
364.7767	37.0581
364.944	36.9442
365.1113	39.25795
365.2786	41.00981
365.4458	40.90856
365.6131	42.02494
365.7803	42.4204
365.9476	41.91832
366.1148	42.2154
366.2821	39.63165
366.4493	35.86921
366.6166	36.68345
366.7838	36.62776
366.951	39.849
367.1182	42.23428
367.2855	40.4915
367.4527	33.77635
367.6199	32.64638
367.7871	36.21717
367.9543	40.03163
368.1215	33.04415
368.2886	37.31401
368.4558	42.81047
368.623	38.48059
368.7902	38.55934
368.9573	39.89375
369.1245	36.8796
369.2917	35.83573
369.4588	35.46448
369.6259	39.07428
369.7931	41.29558
369.9602	40.81449
370.1274	44.22243
370.2945	42.05479
370.4616	43.41519
370.6287	38.67775
370.7958	37.87116
370.963	35.04972
371.1301	40.86038
371.2971	42.62119
371.4643	43.18933
371.6313	41.01316
371.7984	41.35616
371.9655	41.61541
372.1326	42.18323
372.2997	45.4691
372.4667	41.64836
372.6338	44.91748
372.8008	44.48766
372.9679	42.5052
373.1349	41.6644
373.3019	39.75138
373.469	41.34348
373.636	41.37859
373.803	42.52684
373.9701	45.98789
374.1371	49.56943
374.3041	47.59286
374.4711	42.18425
374.6381	46.45127
374.8051	43.94779
374.9721	40.2305
375.1391	44.04726
375.3061	45.57306
375.473	47.1001
375.64	50.42683
375.8069	48.97324
375.9739	42.94476
376.1409	46.41218
376.3078	51.57603
376.4748	45.82359
376.6417	43.82688
376.8087	46.80764
376.9756	47.89221
377.1425	52.6344
377.3094	46.20203
377.4763	47.70997
377.6432	52.47322
377.8102	51.88594
377.9771	48.91573
378.144	53.6764
378.3109	50.31535
378.4777	48.31337
378.6446	49.10435
378.8115	48.25917
378.9784	45.08196
379.1452	39.42104
379.3121	40.60302
379.4789	44.74979
379.6458	44.94715
379.8127	46.46584
379.9795	43.22556
380.1463	42.92095
380.3131	43.54869
380.48	47.83319
380.6468	52.60664
380.8136	54.22268
380.9804	49.9192
381.1472	49.55832
381.314	42.76252
381.4808	43.08137
381.6476	47.5944
381.8144	43.71243
381.9812	40.52317
382.148	41.1532
382.3147	43.19985
382.4815	38.51196
382.6483	37.16288
382.815	36.02168
382.9818	40.72769
383.1485	45.17868
383.3153	40.35594
383.482	41.84215
383.6487	41.03198
383.8155	48.00648
383.9822	50.00304
384.1489	46.62188
384.3156	40.81858
384.4823	48.27757
384.649	53.2752
384.8157	51.90545
384.9824	55.90615
385.1491	50.42796
385.3158	54.34112
385.4825	54.52309
385.6491	51.34134
385.8158	48.37282
385.9825	47.63907
386.1491	53.74942
386.3157	52.38655
386.4824	52.67884
386.649	52.92886
386.8157	53.92884
386.9823	46.86256
387.1489	45.84295
387.3156	57.89098
387.4821	56.2949
387.6488	54.35731
387.8154	49.6758
387.982	55.04367
388.1486	47.74577
388.3152	47.6514
388.4818	53.53269
388.6483	51.676
388.8149	51.60507
388.9815	49.21224
389.148	51.95932
389.3146	53.72987
389.4811	55.26042
389.6477	52.50735
389.8142	53.61923
389.9808	54.6339
390.1473	53.12981
390.3138	52.92905
390.4804	51.76894
390.6469	62.683
390.8134	61.28642
390.9799	53.8597
391.1464	56.85904
391.3129	55.40213
391.4794	57.46858
391.6459	56.57459
391.8124	60.5957
391.9789	52.35777
392.1453	51.39103
392.3118	50.67861
392.4782	51.27321
392.6447	49.74886
392.8112	51.09285
392.9776	49.81115
393.144	52.32015
393.3105	45.38676
393.4769	43.5108
393.6433	39.36411
393.8098	49.14253
393.9762	52.93131
394.1426	51.46127
394.309	50.63846
394.4754	57.67538
394.6418	61.46239
394.8082	58.30642
394.9746	59.8549
395.141	60.95008
395.3073	63.86279
395.4737	65.75539
395.64	62.05138
395.8064	64.23483
395.9728	63.35157
396.1391	59.31884
396.3055	52.09818
396.4718	56.1221
396.6381	49.86734
396.8045	47.62529
396.9708	51.27224
397.1371	49.92923
397.3034	55.77304
397.4697	56.7001
397.636	64.51122
397.8023	67.29482
397.9686	70.41248
398.1349	73.88757
398.3012	75.55427
398.4675	73.97584
398.6337	74.8167
398.8	73.68073
398.9662	70.72014
399.1325	70.83425
399.2988	72.06211
399.465	72.44061
399.6313	71.63805
399.7975	73.57758
399.9637	75.53948
400.1299	77.60345
400.2961	77.58894
400.4624	73.59022
400.6286	73.21197
400.7948	74.90963
400.961	76.6324
401.1272	76.28825
401.2934	81.00733
401.4595	79.99023
401.6257	75.61961
401.7919	76.76151
401.9581	81.94248
402.1242	78.78552
402.2904	72.70949
402.4565	79.56321
402.6227	75.15471
402.7888	79.1993
402.955	77.11658
403.1211	74.83054
403.2872	72.61122
403.4533	73.63542
403.6194	76.58785
403.7856	76.06304
403.9517	81.07323
404.1177	82.14452
404.2838	77.19988
404.4499	75.49228
404.616	75.84261
404.7821	76.71774
404.9482	81.04721
405.1142	81.25575
405.2803	80.25243
405.4464	81.22174
405.6124	75.11295
405.7784	79.32595
405.9445	78.66578
406.1105	82.23319
406.2766	75.87822
406.4426	74.37343
406.6086	78.26068
406.7746	83.09618
406.9406	84.78668
407.1066	82.89278
407.2726	82.59388
407.4386	85.09856
407.6046	84.99184
407.7706	83.10641
407.9366	77.69977
408.1025	78.22569
408.2685	82.07978
408.4344	88.85076
408.6004	88.07738
408.7664	90.37074
408.9323	91.7701
409.0983	92.30962
409.2642	89.54911
409.4301	89.92185
409.596	86.60361
409.762	84.79601
409.9279	85.36423
410.0938	83.57153
410.2597	80.75957
410.4256	85.29957
410.5915	91.24171
410.7574	93.12476
410.9232	95.05765
411.0891	93.58788
411.255	96.42433
411.4209	94.4898
411.5867	92.74691
411.7526	97.69645
411.9184	99.97722
412.0843	89.64968
412.2501	96.83606
412.4159	95.53058
412.5818	99.60618
412.7476	103.1661
412.9134	102.3501
413.0792	96.35353
413.245	87.71283
413.4108	95.63747
413.5766	93.56906
413.7424	92.63504
413.9082	96.97703
414.074	96.00426
414.2397	90.55418
414.4055	95.62675
414.5713	97.53496
414.737	96.84769
414.9028	95.91169
415.0685	96.41302
415.2343	91.10854
415.4	91.79044
415.5658	93.65423
415.7315	92.73708
415.8972	93.68634
416.0629	97.09095
416.2286	98.31458
416.3943	98.79871
416.56	101.0228
416.7257	94.70919
416.8914	95.30151
417.0571	100.5825
417.2228	94.39983
417.3884	90.43802
417.5541	95.08855
417.7198	93.47385
417.8854	92.03478
418.0511	94.33362
418.2167	92.60956
418.3824	93.9356
418.548	98.30099
418.7136	98.75447
418.8792	100.1519
419.0449	99.62719
419.2105	98.71567
419.3761	101.7559
419.5417	100.2445
419.7073	99.48579
419.8729	100.5872
420.0385	98.68406
420.204	98.55495
420.3696	98.68097
420.5352	98.81483
420.7007	107.321
420.8663	104.612
421.0319	106.9149
421.1974	113.1009
421.3629	106.0057
421.5285	106.6662
421.694	106.8145
421.8595	108.0185
422.0251	106.16
422.1906	111.5868
422.3561	101.0853
422.5216	96.6031
422.6871	95.08324
422.8526	96.55949
423.0181	93.49127
423.1835	106.7715
423.349	109.9583
423.5145	114.8223
423.68	107.8449
423.8454	108.1567
424.0109	106.1411
424.1763	110.6217
424.3418	106.5274
424.5072	106.397
424.6726	110.0109
424.838	110.6335
425.0035	110.4337
425.1689	104.2936
425.3343	106.381
425.4997	109.9792
425.6651	113.951
425.8305	114.1993
425.9959	110.6218
426.1613	108.2444
426.3267	116.8562
426.492	117.5002
426.6574	114.8877
426.8228	108.7786
426.9881	107.0204
427.1534	103.1065
427.3188	101.0644
427.4841	108.4466
427.6495	108.6155
427.8148	113.3203
427.9801	113.903
428.1454	112.4199
428.3107	115.0744
428.476	118.6679
428.6414	114.7665
428.8066	109.9408
428.9719	109.4158
429.1372	113.4488
429.3025	108.0172
429.4678	108.1288
429.633	104.7617
429.7983	97.52194
429.9636	97.30453
430.1288	93.60213
430.294	89.31222
430.4593	90.17088
430.6245	95.0995
430.7897	91.75716
430.955	93.87726
431.1202	94.3295
431.2854	98.22636
431.4506	106.7995
431.6158	114.472
431.781	124.6729
431.9462	126.2932
432.1114	122.289
432.2766	108.7678
432.4417	104.9878
432.6069	111.3006
432.772	113.7666
432.9372	112.1064
433.1024	117.0191
433.2675	120.4286
433.4326	129.0086
433.5977	117.1668
433.7629	114.3034
433.928	104.0599
434.0931	97.17406
434.2582	106.0405
434.4233	117.6649
434.5884	120.543
434.7535	126.0311
434.9186	121.2532
435.0837	121.9437
435.2488	120.2299
435.4138	115.1195
435.5789	121.5152
435.744	129.3179
435.909	124.4983
436.0741	130.5779
436.2391	133.8358
436.4042	132.4551
436.5692	124.671
436.7342	128.0283
436.8992	131.3743
437.0643	133.4596
437.2293	135.4147
437.3943	129.0288
437.5593	127.6867
437.7243	132.814
437.8893	129.559
438.0542	132.0306
438.2192	122.2369
438.3842	109.8939
438.5491	118.6013
438.7141	125.8708
438.8791	129.5759
439.044	130.2816
439.209	128.7578
439.3739	126.6408
439.5388	134.3539
439.7037	138.7257
439.8687	131.9
440.0336	127.704
440.1985	129.5059
440.3634	136.1074
440.5283	129.3046
440.6932	133.5714
440.8581	139.6987
441.0229	143.2729
441.1878	141.3616
441.3527	148.459
441.5175	143.607
441.6824	138.2303
441.8472	144.5035
442.0121	146.9707
442.1769	148.5845
442.3418	144.4327
442.5066	144.8695
442.6714	148.4487
442.8362	147.2808
443.001	145.7741
443.1659	149.358
443.3307	145.6499
443.4955	142.8301
443.6602	137.4654
443.825	145.522
443.9898	145.0818
444.1546	145.3175
444.3193	145.0982
444.4841	143.225
444.6488	146.8025
444.8136	147.5628
444.9783	148.6194
445.1431	149.5171
445.3078	147.9833
445.4725	143.6037
445.6372	141.6992
445.802	135.2078
445.9667	138.4437
446.1314	141.258
446.2961	139.8358
446.4608	138.1848
446.6255	145.5319
446.7901	149.7582
446.9548	148.6052
447.1195	152.7861
447.2841	153.7153
447.4488	150.5192
447.6134	152.4076
447.7781	154.2332
447.9427	155.1026
448.1074	149.3352
448.272	149.4407
448.4366	155.7399
448.6012	157.8087
448.7658	156.9443
448.9305	154.2832
449.095	150.2726
449.2596	150.5053
449.4242	151.2325
449.5888	152.983
449.7534	158.3916
449.9179	159.6096
450.0825	155.9198
450.2471	156.5536
450.4116	156.2788
450.5762	161.8917
450.7407	156.731
450.9052	170.7415
451.0698	159.7917
451.2343	158.147
451.3988	159.3595
451.5633	160.4122
451.7278	162.7746
451.8923	165.8101
452.0568	162.3048
452.2213	165.8082
452.3858	163.0307
452.5503	162.8945
452.7148	154.6853
452.8792	148.7399
453.0437	153.9007
453.2081	157.6605
453.3726	154.0257
453.537	164.1086
453.7015	167.941
453.8659	163.0455
454.0303	163.5331
454.1947	165.0109
454.3592	167.5073
454.5236	166.7005
454.688	160.8708
454.8524	161.0433
455.0168	160.0456
455.1811	163.8271
455.3455	168.5168
455.5099	167.9498
455.6743	166.8228
455.8386	164.3615
456.003	174.7585
456.1673	178.6515
456.3317	170.6366
456.496	168.2531
456.6603	172.2556
456.8246	180.1808
456.989	173.2609
457.1533	174.1046
457.3176	174.0885
457.4819	177.8752
457.6462	176.0232
457.8105	164.4701
457.9748	167.9857
458.1391	175.9674
458.3033	164.6282
458.4676	163.1247
458.6319	169.9895
458.7961	178.8269
458.9604	176.3699
459.1246	173.9574
459.2888	172.7101
459.4531	167.5489
459.6173	171.5948
459.7815	177.6014
459.9457	171.3726
460.11	164.6141
460.2741	174.1592
460.4384	179.2265
460.6025	178.0675
460.7667	183.4731
460.9309	183.3625
461.0951	178.995
461.2592	172.7459
461.4234	177.8963
461.5876	179.5608
461.7517	176.0751
461.9159	175.5117
462.08	183.0666
462.2441	180.3412
462.4082	183.76
462.5724	175.5575
462.7365	176.2855
462.9006	178.2156
463.0647	181.2074
463.2288	172.3739
463.3929	177.1818
463.557	179.4572
463.721	178.4092
463.8851	173.4047
464.0492	172.2367
464.2132	173.4723
464.3773	180.7789
464.5414	179.6615
464.7054	174.4495
464.8694	168.1641
465.0334	170.249
465.1975	173.5689
465.3615	178.4534
465.5255	178.8935
465.6895	178.3335
465.8535	177.6113
466.0175	184.7336
466.1815	183.4656
466.3455	180.6073
466.5095	181.779
466.6734	167.7859
466.8374	168.2647
467.0014	170.478
467.1653	183.2352
467.3293	180.3322
467.4932	178.6339
467.6571	182.7798
467.8211	177.9314
467.985	179.422
468.1489	181.518
468.3128	183.1372
468.4767	182.9857
468.6406	179.8156
468.8045	178.754
468.9684	184.0846
469.1323	186.7639
469.2962	182.0305
469.46	180.2162
469.6239	190.3721
469.7878	183.1604
469.9516	184.0399
470.1154	179.7594
470.2793	174.9515
470.4431	182.368
470.607	186.4179
470.7708	183.1092
470.9346	187.4815
471.0984	180.2115
471.2622	183.3089
471.426	188.1893
471.5898	191.517
471.7536	192.9159
471.9174	199.3872
472.0811	189.9256
472.2449	190.7382
472.4087	191.3828
472.5724	191.6152
472.7362	190.3397
472.8999	186.828
473.0637	185.3161
473.2274	190.3469
473.3911	188.6601
473.5548	192.4467
473.7185	190.5691
473.8822	189.8899
474.0459	193.1252
474.2096	197.5231
474.3733	199.3827
474.537	192.2388
474.7007	199.5935
474.8643	201.3375
475.028	201.5978
475.1917	191.2125
475.3553	190.0708
475.519	189.8602
475.6826	190.4627
475.8463	198.8826
476.0099	195.8518
476.1735	194.2662
476.3371	191.6605
476.5007	185.669
476.6643	189.9258
476.8279	194.1066
476.9915	196.1684
477.1551	196.9814
477.3187	199.1362
477.4823	191.475
477.6458	199.1284
477.8094	195.6466
477.9729	192.9909
478.1365	189.7574
478.3	194.3413
478.4636	195.4671
478.6271	190.4349
478.7906	191.4693
478.9541	191.3481
479.1176	201.2206
479.2812	196.4924
479.4447	200.0673
479.6082	193.331
479.7716	199.9211
479.9351	192.6489
480.0986	192.9345
480.2621	199.3763
480.4255	195.8238
480.589	190.5069
480.7524	195.8413
480.9159	192.0175
481.0793	195.7603
481.2428	195.4634
481.4062	195.6766
481.5696	197.9894
481.733	202.5539
481.8964	198.9702
482.0598	198.3089
482.2232	195.6938
482.3866	190.5744
482.55	193.2738
482.7134	194.1532
482.8768	194.09
483.0401	191.9039
483.2035	190.6767
483.3668	192.9615
483.5302	195.8497
483.6935	197.5121
483.8568	190.7447
484.0202	182.9709
484.1835	189.9505
484.3468	185.5572
484.5101	189.0066
484.6734	195.2079
484.8367	194.5547
485	196.7642
485.1633	197.9822
485.3266	190.1977
485.4899	192.0195
485.6531	182.7726
485.8164	184.4467
485.9796	175.0446
486.1429	159.9792
486.3061	152.4522
486.4694	169.732
486.6326	188.3521
486.7958	186.3419
486.959	179.762
487.1223	186.2989
487.2855	189.7601
487.4486	191.0518
487.6118	198.1357
487.775	196.0213
487.9382	200.0555
488.1014	199.6351
488.2646	198.9425
488.4277	195.8222
488.5909	197.9089
488.754	196.9324
488.9171	191.4154
489.0803	188.782
489.2434	193.3975
489.4066	198.1694
489.5697	208.6887
489.7328	212.6453
489.8959	213.4065
490.059	210.042
490.2221	197.4352
490.3852	201.8566
490.5482	204.5843
490.7113	200.2597
490.8744	202.2003
491.0374	206.1779
491.2005	206.3312
491.3636	205.7103
491.5266	208.132
491.6896	208.835
491.8527	201.9062
492.0157	189.3967
492.1787	198.0296
492.3417	197.2489
492.5047	202.3674
492.6677	205.4304
492.8307	208.4721
492.9937	216.0334
493.1567	214.7601
493.3196	209.5903
493.4826	204.2697
493.6456	198.1145
493.8085	198.0871
493.9715	197.8651
494.1344	202.5766
494.2974	211.6745
494.4603	207.545
494.6232	202.0834
494.7861	204.8786
494.949	210.6695
495.1119	212.2738
495.2748	215.2709
495.4377	212.9846
495.6006	198.705
495.7635	198.5846
495.9264	199.5273
496.0892	207.2162
496.2521	215.7028
496.4149	218.8969
496.5778	216.3069
496.7407	210.1304
496.9035	211.9272
497.0663	205.0025
497.2291	217.0162
497.3919	217.2854
497.5547	221.4775
497.7176	221.6351
497.8804	212.8824
498.0432	205.6708
498.2059	197.2585
498.3687	194.7062
498.5315	201.5468
498.6942	206.8298
498.857	206.1385
499.0198	215.4947
499.1825	213.494
499.3452	204.9716
499.508	212.7845
499.6707	216.4485
499.8334	216.053
499.9962	207.2974
500.1589	201.7188
500.3216	204.6621
500.4843	204.2025
500.6469	206.3006
500.8096	210.7146
500.9723	209.1021
501.135	210.2955
501.2976	210.2798
501.4603	197.5947
501.623	201.4762
501.7856	207.0262
501.9482	205.5522
502.1109	203.356
502.2735	201.1288
502.4361	201.5555
502.5987	206.9519
502.7614	208.3087
502.924	207.9801
503.0865	216.4521
503.2491	206.9925
503.4117	210.1493
503.5743	214.0924
503.7368	209.3289
503.8994	194.6789
504.062	202.3734
504.2245	201.9016
504.3871	202.3568
504.5496	212.7132
504.7121	219.2951
504.8746	209.5869
505.0372	205.439
505.1997	215.9575
505.3622	219.3204
505.5247	213.7777
505.6872	209.8628
505.8497	217.3362
506.0121	217.4704
506.1746	224.9105
506.3371	226.5418
506.4995	215.4608
506.662	206.1877
506.8244	216.7209
506.9869	223.5611
507.1493	221.9789
507.3117	217.1795
507.4742	212.2036
507.6366	218.0155
507.799	215.0421
507.9614	215.1181
508.1238	210.96
508.2862	217.2487
508.4485	217.6629
508.6109	217.4004
508.7733	224.1624
508.9357	224.2025
509.098	221.1441
509.2604	226.1481
509.4227	216.7901
509.5851	227.9816
509.7474	211.2743
509.9097	210.0257
510.072	217.2085
510.2343	228.9303
510.3966	228.091
510.5589	224.5809
510.7212	218.2869
510.8835	217.0282
511.0458	216.1762
511.2081	214.6724
511.3703	224.2804
511.5326	225.9799
511.6949	223.5924
511.8571	226.8927
512.0193	232.1643
512.1816	227.6572
512.3438	220.819
512.506	212.7874
512.6682	217.7532
512.8304	221.1957
512.9926	221.5528
513.1548	225.2601
513.317	219.1496
513.4792	225.6898
513.6414	218.5544
513.8035	214.1171
513.9657	210.6468
514.1279	207.0186
514.29	219.7101
514.4521	225.2969
514.6143	220.6682
514.7764	214.0879
514.9385	219.2314
515.1006	218.7654
515.2628	222.3542
515.4249	221.7809
515.587	217.414
515.7491	217.746
515.9111	228.1263
516.0732	223.7945
516.2353	212.8342
516.3973	211.0138
516.5594	203.9906
516.7214	202.8952
516.8835	192.7157
517.0455	192.8043
517.2076	193.608
517.3696	196.0272
517.5316	208.3675
517.6937	212.5347
517.8557	215.9633
518.0176	214.1226
518.1796	205.3695
518.3416	194.1831
518.5036	191.5805
518.6656	205.84
518.8275	214.9982
518.9895	217.7352
519.1514	211.6554
519.3134	215.9988
519.4753	212.9367
519.6373	208.0762
519.7992	217.1364
519.9611	219.1742
520.123	224.7819
520.2849	215.3375
520.4468	221.641
520.6087	210.8974
520.7706	212.8503
520.9325	219.0583
521.0944	215.9984
521.2562	227.1354
521.4181	221.4358
521.58	221.1867
521.7418	219.1568
521.9036	218.244
522.0655	223.8613
522.2273	229.9011
522.3891	224.0052
522.551	220.2909
522.7128	216.0332
522.8746	212.6681
523.0363	213.7545
523.1981	213.1577
523.3599	216.0985
523.5217	216.0727
523.6835	227.1964
523.8452	222.1481
524.007	224.7665
524.1687	225.3476
524.3304	223.6022
524.4922	226.3622
524.6539	227.5414
524.8157	222.665
524.9774	225.6205
525.1391	227.2492
525.3008	222.2332
525.4625	223.4719
525.6241	226.7888
525.7858	231.8535
525.9475	236.6992
526.1092	227.9349
526.2709	218.6798
526.4325	209.6815
526.5942	210.6004
526.7558	208.5717
526.9174	206.1253
527.079	211.7942
527.2407	212.512
527.4023	213.9137
527.5639	220.4405
527.7255	220.8542
527.8871	222.624
528.0487	232.5435
528.2103	226.9863
528.3718	216.8467
528.5334	220.8082
528.695	223.5745
528.8565	232.771
529.0181	238.1584
529.1796	233.5648
529.3412	235.7709
529.5027	235.1987
529.6642	234.1456
529.8257	226.2867
529.9872	222.3905
530.1487	229.1592
530.3102	227.8432
530.4717	237.1578
530.6332	232.3157
530.7947	233.326
530.9562	231.246
531.1176	236.9703
531.2791	233.5956
531.4405	232.4124
531.6019	231.1959
531.7634	230.5197
531.9248	232.4104
532.0862	236.8439
532.2477	235.008
532.4091	225.1178
532.5704	225.5159
532.7319	231.6408
532.8932	221.4716
533.0546	214.6776
533.216	227.0535
533.3774	243.978
533.5388	243.8842
533.7001	235.5941
533.8615	234.4807
534.0228	232.5042
534.1841	227.746
534.3455	230.3532
534.5068	231.485
534.6681	237.5576
534.8293	232.942
534.9907	238.366
535.152	236.6642
535.3132	240.3141
535.4745	236.1769
535.6358	235.4367
535.7971	236.5441
535.9583	236.5003
536.1196	235.4562
536.2808	237.7657
536.4421	239.9908
536.6033	231.4583
536.7645	233.5201
536.9258	225.3486
537.087	229.6317
537.2482	221.1535
537.4094	232.7402
537.5706	232.3709
537.7318	238.3372
537.8929	234.6419
538.0541	238.9154
538.2153	230.2952
538.3764	231.378
538.5376	238.0782
538.6987	225.7521
538.8599	233.7744
539.021	234.7078
539.1821	233.9045
539.3432	227.6509
539.5043	226.8222
539.6655	230.4144
539.8265	223.6022
539.9876	230.6425
540.1487	234.2732
540.3098	229.1318
540.4708	226.2085
540.6319	220.5492
540.793	224.196
540.954	232.6404
541.1151	230.5801
541.2761	223.1767
541.4371	224.9209
541.5981	227.7989
541.7592	231.4818
541.9202	230.0938
542.0812	235.3516
542.2422	231.2936
542.4031	230.7517
542.5641	226.3967
542.7251	231.6451
542.886	227.0059
543.0471	219.6618
543.208	225.4469
543.369	224.4494
543.5298	220.575
543.6908	223.9143
543.8517	225.8576
544.0126	232.7069
544.1736	232.9311
544.3345	230.112
544.4954	224.4565
544.6563	225.0803
544.8171	225.1192
544.978	229.5303
545.1389	232.0069
545.2997	236.3265
545.4606	228.8985
545.6215	229.1005
545.7823	229.6841
545.9432	232.0712
546.104	235.0231
546.2648	237.1188
546.4256	230.4515
546.5864	231.1141
546.7473	236.9105
546.908	227.7868
547.0688	218.7148
547.2296	231.7673
547.3904	236.4351
547.5511	221.6709
547.7119	227.7326
547.8727	232.501
548.0334	230.4628
548.1942	229.9908
548.3549	227.5692
548.5156	234.9484
548.6763	230.1939
548.837	230.6359
548.9977	234.0698
549.1584	235.1775
549.3192	234.556
549.4798	235.2732
549.6405	235.713
549.8011	234.6954
549.9619	234.6815
550.1225	229.3775
550.2831	230.6205
550.4438	239.0349
550.6044	232.7977
550.765	234.4571
550.9257	229.5579
551.0863	230.1715
551.2469	233.0755
551.4075	236.1668
551.5681	235.458
551.7287	242.367
551.8893	241.3117
552.0498	233.8175
552.2104	236.4872
552.371	241.5178
552.5315	237.2419
552.6921	236.6493
552.8526	235.965
553.0131	246.1336
553.1736	239.9637
553.3342	234.8511
553.4947	229.9036
553.6552	231.441
553.8157	238.76
553.9762	236.0539
554.1367	242.034
554.2971	234.5186
554.4576	242.5139
554.618	248.9996
554.7785	246.1212
554.939	242.0335
555.0994	239.2722
555.2598	246.523
555.4203	243.8177
555.5807	236.5529
555.7411	235.8355
555.9015	241.8261
556.0619	242.5075
556.2223	241.8538
556.3827	230.1078
556.5431	236.0352
556.7034	239.4503
556.8638	235.1028
557.0242	236.6421
557.1845	233.7081
557.3448	237.2027
557.5052	234.2795
557.6655	232.9878
557.8259	234.8749
557.9861	239.8106
558.1465	238.4888
558.3068	237.9072
558.467	234.7568
558.6274	225.7173
558.7877	224.2247
558.9479	226.3283
559.1082	232.2194
559.2684	231.7885
559.4287	235.3933
559.5889	239.7348
559.7491	236.9358
559.9094	232.2605
560.0696	232.7872
560.2299	233.4258
560.3901	236.5222
560.5502	234.7307
560.7104	240.3271
560.8707	234.9582
561.0308	235.3593
561.191	248.2812
561.3511	239.3295
561.5114	230.5134
561.6714	234.1254
561.8316	235.0582
561.9918	231.498
562.1519	239.4871
562.312	246.8388
562.4722	237.4909
562.6323	236.7778
562.7924	242.3459
562.9525	241.1809
563.1125	245.8324
563.2726	246.3044
563.4327	243.8226
563.5928	239.9688
563.7528	238.1046
563.9129	237.9022
564.0729	240.8628
564.233	241.4919
564.393	237.922
564.553	240.1796
564.7131	244.0089
564.873	248.251
565.0331	243.497
565.1931	237.8897
565.353	236.0366
565.5131	240.7753
565.673	242.9318
565.833	235.4833
565.9929	227.9098
566.1529	233.1848
566.3129	236.0005
566.4728	233.7418
566.6328	232.7034
566.7927	234.9832
566.9526	239.4161
567.1125	239.6112
567.2724	239.2055
567.4323	241.3013
567.5922	238.16
567.7521	240.995
567.9119	241.964
568.0718	240.9405
568.2317	245.0183
568.3915	237.3805
568.5514	233.9551
568.7112	235.6481
568.871	236.3346
569.0309	238.8473
569.1907	240.7562
569.3505	242.2724
569.5103	246.8627
569.6701	248.0323
569.8299	240.7441
569.9897	245.3557
570.1495	236.8077
570.3092	240.155
570.469	238.078
570.6287	235.1635
570.7885	229.3829
570.9482	237.5482
571.108	237.2262
571.2677	236.5458
571.4274	236.4785
571.5871	240.9746
571.7468	244.297
571.9066	245.1735
572.0662	251.365
572.2259	254.0078
572.3856	254.6452
572.5452	257.0151
572.7049	253.6797
572.8646	251.9993
573.0242	251.6849
573.1838	252.8745
573.3435	250.1408
573.5031	255.7749
573.6627	254.0918
573.8223	254.7397
573.9819	260.0905
574.1415	258.01
574.3011	260.5362
574.4607	260.9746
574.6203	256.5132
574.7798	260.8747
574.9394	260.755
575.099	256.1893
575.2585	256.7618
575.418	257.5343
575.5776	243.8928
575.7371	247.0348
575.8966	251.464
576.0562	257.2857
576.2156	263.0865
576.3751	257.6301
576.5346	250.8331
576.6941	251.7127
576.8536	255.3465
577.0131	255.8864
577.1725	260.4396
577.332	261.3701
577.4914	251.6431
577.6508	253.3698
577.8103	258.6518
577.9697	251.1983
578.1291	246.8813
578.2885	243.6942
578.4479	245.6426
578.6073	248.687
578.7667	253.9099
578.9261	252.5866
579.0854	250.8076
579.2448	256.2709
579.4042	257.0443
579.5635	259.5465
579.7229	257.2373
579.8822	262.0255
580.0416	265.6635
580.2009	264.4442
580.3602	258.1455
580.5195	260.0635
580.6788	247.59
580.8381	255.0049
580.9974	261.7574
581.1566	257.8305
581.3159	258.8768
581.4752	263.636
581.6345	258.3367
581.7937	262.4765
581.9529	264.7981
582.1122	259.864
582.2714	261.7992
582.4306	263.36
582.5898	262.9196
582.749	266.2099
582.9082	266.8462
583.0674	268.7742
583.2266	260.4862
583.3857	256.2362
583.5449	253.4786
583.7041	262.9774
583.8633	268.0897
584.0224	265.4549
584.1815	261.6001
584.3407	260.5465
584.4998	263.6254
584.6589	264.6787
584.818	262.2292
584.9771	268.822
585.1362	266.3868
585.2953	268.7742
585.4544	266.0543
585.6135	262.3951
585.7725	258.8379
585.9316	256.6347
586.0906	264.8171
586.2497	272.0324
586.4087	267.7852
586.5677	265.9749
586.7267	267.1739
586.8858	267.0326
587.0448	268.2245
587.2038	271.2023
587.3628	264.7912
587.5218	266.5441
587.6807	270.6034
587.8397	269.5575
587.9987	271.5528
588.1577	273.0469
588.3166	269.6312
588.4755	264.0448
588.6345	258.5749
588.7934	262.274
588.9523	260.245
589.1112	251.7088
589.2701	242.4622
589.429	245.4442
589.5879	244.9697
589.7468	254.0797
589.9056	255.6871
590.0645	260.8147
590.2234	266.0649
590.3822	263.2578
590.5411	265.893
590.6999	275.9836
590.8588	272.9416
591.0176	262.0888
591.1764	268.077
591.3352	271.1079
591.494	267.9006
591.6528	267.0689
591.8116	261.3565
591.9703	263.2502
592.1291	262.3658
592.2878	268.0544
592.4467	276.856
592.6053	270.2436
592.7641	263.2139
592.9229	267.8834
593.0816	264.646
593.2403	265.8039
593.399	266.4482
593.5577	269.1611
593.7164	273.3177
593.8751	275.757
594.0338	275.2105
594.1924	264.7804
594.3511	268.1607
594.5098	267.9257
594.6684	263.0637
594.8271	266.4077
594.9857	269.4743
595.1443	269.2443
595.303	272.814
595.4615	274.3852
595.6202	277.6226
595.7787	278.429
595.9374	276.2026
596.0959	277.4156
596.2545	275.0526
596.4131	281.8305
596.5717	281.9716
596.7302	278.2325
596.8887	287.2206
597.0473	276.0853
597.2058	278.9585
597.3644	281.2443
597.5229	273.8022
597.6814	268.2282
597.8399	284.9202
597.9984	274.9406
598.1569	279.347
598.3154	282.6911
598.4738	281.6811
598.6323	276.3686
598.7908	279.5627
598.9492	281.9094
599.1076	277.3153
599.2661	280.5505
599.4245	280.1255
599.5829	284.6312
599.7413	285.8172
599.8997	286.7852
600.0581	285.9616
600.2165	280.0341
600.3749	282.8128
600.5333	280.1025
600.6917	281.3309
600.85	281.9925
601.0084	286.9123
601.1667	283.7176
601.325	279.3259
601.4833	284.6634
601.6417	285.0674
601.8	286.4179
601.9583	284.5313
602.1166	286.1982
602.2749	282.5466
602.4332	277.05
602.5914	274.6011
602.7498	283.097
602.908	287.6288
603.0662	285.1958
603.2245	284.8046
603.3828	283.6741
603.541	291.6244
603.6992	289.3808
603.8574	289.3622
604.0156	289.2287
604.1738	290.5059
604.332	288.5055
604.4902	285.86
604.6484	290.4843
604.8065	288.967
604.9647	284.8795
605.1229	291.7303
605.281	286.1368
605.4391	282.0063
605.5973	290.3155
605.7554	278.2108
605.9135	288.3918
606.0717	293.2071
606.2297	290.8295
606.3878	289.1497
606.5459	282.8695
606.704	280.7094
606.8621	293.5052
607.0201	290.9655
607.1782	291.2342
607.3362	295.1707
607.4943	294.6595
607.6523	285.3257
607.8104	286.5064
607.9684	294.321
608.1264	293.508
608.2844	288.4442
608.4424	287.5511
608.6003	291.3537
608.7584	284.9895
608.9163	286.2431
609.0743	288.09
609.2322	287.1145
609.3902	283.9024
609.5482	293.2389
609.7061	294.7195
609.864	293.9907
610.0219	288.4912
610.1798	283.2417
610.3377	283.1146
610.4956	284.6976
610.6535	287.808
610.8114	290.4764
610.9693	288.7834
611.1271	283.3195
611.285	282.9926
611.4429	296.9208
611.6007	292.7599
611.7585	293.5175
611.9164	293.6515
612.0742	289.2197
612.232	282.1591
612.3898	278.1502
612.5476	282.2084
612.7054	288.836
612.8632	284.0912
613.0209	277.7943
613.1787	283.1275
613.3365	284.1733
613.4942	283.6642
613.652	281.9814
613.8097	274.7014
613.9674	279.8953
614.1252	286.2528
614.2829	282.4825
614.4406	279.4291
614.5983	284.233
614.756	287.9014
614.9136	288.6566
615.0714	282.2822
615.229	284.4507
615.3867	292.2999
615.5443	282.0746
615.702	280.3505
615.8596	279.1
616.0172	278.4138
616.1748	279.6403
616.3325	272.7628
616.4901	279.7319
616.6476	279.3299
616.8052	280.935
616.9628	274.9117
617.1204	278.0379
617.278	278.9731
617.4355	280.542
617.5931	284.4068
617.7506	283.2298
617.9081	279.9569
618.0657	278.8985
618.2232	278.3691
618.3807	279.9276
618.5382	284.396
618.6957	280.4739
618.8532	277.9005
619.0107	280.5759
619.1682	279.5562
619.3256	270.6349
619.4831	278.7102
619.6406	284.6742
619.798	286.5081
619.9554	284.6126
620.1129	281.7626
620.2703	281.7596
620.4277	281.2885
620.5851	281.2354
620.7425	283.2644
620.8998	284.4862
621.0573	275.2278
621.2146	268.4581
621.372	269.5974
621.5294	274.5874
621.6867	283.6799
621.8441	273.9765
622.0013	267.1767
622.1587	273.6552
622.316	281.4537
622.4733	277.5469
622.6306	276.6624
622.7879	287.0184
622.9452	276.2207
623.1025	268.7201
623.2598	277.519
623.4171	274.6126
623.5743	276.5409
623.7316	273.8442
623.8888	271.8731
624.046	278.9105
624.2032	283.7178
624.3605	275.7751
624.5176	268.5132
624.6749	265.1014
624.8321	269.438
624.9893	274.1898
625.1464	274.3108
625.3036	269.0285
625.4608	271.5972
625.6179	280.0192
625.7751	277.7267
625.9322	276.7484
626.0894	268.4394
626.2465	283.2621
626.4036	283.5343
626.5607	279.9042
626.7178	275.0611
626.8749	276.2124
627.032	271.4922
627.189	272.0929
627.3461	278.0609
627.5032	275.1075
627.6602	268.9161
627.8173	268.5965
627.9743	263.8306
628.1313	266.4761
628.2884	271.0298
628.4454	274.7964
628.6024	276.5685
628.7594	267.6407
628.9164	274.419
629.0734	272.2546
629.2303	270.7877
629.3873	266.374
629.5443	277.0315
629.7012	268.8277
629.8582	269.1803
630.0151	266.9214
630.172	264.6877
630.3289	266.4868
630.4858	264.7154
630.6428	269.8718
630.7996	272.5263
630.9565	272.1526
631.1134	267.1231
631.2703	266.0027
631.4272	271.7085
631.584	267.7888
631.7408	266.5038
631.8977	259.2594
632.0546	261.8674
632.2114	269.0227
632.3682	271.7395
632.525	272.2068
632.6818	270.7146
632.8386	271.9464
632.9954	273.1397
633.1522	271.0078
633.3089	271.0912
633.4657	262.743
633.6224	268.3371
633.7792	267.0269
633.9359	273.1521
634.0927	266.1943
634.2494	267.928
634.4061	269.102
634.5628	269.3226
634.7195	266.522
634.8762	266.2401
635.0329	267.5767
635.1895	264.6877
635.3462	266.8545
635.5029	275.0189
635.6595	265.3519
635.8162	257.9579
635.9728	261.1512
636.1295	271.3394
636.2861	271.61
636.4427	262.874
636.5992	266.999
636.7559	265.2487
636.9124	264.4385
637.069	266.0518
637.2256	267.0418
637.3821	268.3999
637.5387	267.5333
637.6953	268.2237
637.8518	268.5438
638.0084	268.0515
638.1649	264.3706
638.3214	268.03
638.4779	260.7933
638.6344	268.7072
638.7909	266.8481
638.9474	269.9554
639.1038	268.0135
639.2603	270.0235
639.4167	270.0418
639.5732	264.5769
639.7297	269.1843
639.8861	261.3985
640.0425	249.9075
640.199	257.2149
640.3553	260.1827
640.5118	259.0234
640.6682	262.0589
640.8245	256.1458
640.981	255.8511
641.1373	257.3297
641.2936	261.6846
641.45	259.3739
641.6064	262.5817
641.7627	268.6755
641.9191	261.2347
642.0754	254.5155
642.2317	255.9353
642.388	254.9307
642.5443	267.7359
642.7006	263.8173
642.8569	259.6874
643.0131	253.6863
643.1694	253.987
643.3257	260.8773
643.4819	261.7548
643.6382	250.4496
643.7944	249.7754
643.9506	256.0489
644.1069	260.3215
644.2631	251.3495
644.4193	252.6161
644.5754	252.6874
644.7316	249.961
644.8878	256.7422
645.044	257.0415
645.2002	250.5008
645.3563	251.1954
645.5125	255.9496
645.6686	250.1029
645.8248	250.6874
645.9809	252.3815
646.137	257.4558
646.2931	253.5524
646.4492	253.7173
646.6053	249.7058
646.7614	256.6688
646.9174	248.4913
647.0735	243.5416
647.2296	246.5429
647.3856	242.7818
647.5417	246.7444
647.6977	248.6921
647.8537	243.5463
648.0098	247.5963
648.1658	246.4392
648.3218	247.864
648.4777	251.2757
648.6337	254.2611
648.7897	248.3591
648.9457	243.0189
649.1016	251.5396
649.2576	241.3044
649.4135	237.8757
649.5695	233.3489
649.7254	233.8758
649.8813	239.0478
650.0372	243.9622
650.1932	251.2674
650.3491	248.4942
650.5049	249.4945
650.6608	251.1172
650.8167	243.1174
650.9725	245.8272
651.1284	238.8144
651.2842	238.6857
651.4401	244.3156
651.5959	235.654
651.7518	243.655
651.9076	243.7094
652.0634	245.5329
652.2192	243.4404
652.3749	241.0281
652.5308	251.6318
652.6865	247.7863
652.8423	250.5525
652.998	245.875
653.1538	239.9254
653.3096	238.2679
653.4653	242.9113
653.621	235.4595
653.7767	234.7479
653.9324	236.0799
654.0881	238.8513
654.2438	245.8239
654.3995	237.4183
654.5552	237.1233
654.7109	233.0859
654.8665	238.2486
655.0222	236.7436
655.1778	232.4182
655.3334	238.1413
655.4891	239.6582
655.6447	230.6063
655.8003	226.4592
655.9559	222.7217
656.1115	210.1106
656.2671	195.5276
656.4227	201.379
656.5782	214.2844
656.7338	222.1244
656.8893	220.1526
657.0449	224.4276
657.2004	234.446
657.356	236.7529
657.5115	236.6242
657.667	243.1582
657.8225	241.8273
657.978	241.3304
658.1335	237.8603
658.289	242.9867
658.4445	242.8674
658.5999	246.3627
658.7554	232.9031
658.9108	238.5248
659.0663	241.5721
659.2217	242.3506
659.3771	233.1122
659.5325	233.6018
659.6879	234.309
659.8433	235.5032
659.9987	235.9301
660.1541	234.7847
660.3095	241.4548
660.4648	241.361
660.6202	242.7401
660.7756	237.0962
660.9309	237.8302
661.0862	241.1285
661.2416	236.4864
661.3969	238.3174
661.5522	244.4198
661.7075	240.4476
661.8628	233.0308
662.0181	239.4338
662.1733	236.5793
662.3286	235.5152
662.4839	236.6506
662.6391	241.5352
662.7944	237.1662
662.9496	238.5337
663.1048	242.0224
663.26	234.139
663.4152	231.453
663.5704	229.3378
663.7256	236.5516
663.8808	235.847
664.036	241.5893
664.1912	234.6964
664.3463	228.5993
664.5015	235.8247
664.6566	232.0502
664.8118	236.2497
664.9669	241.0172
665.122	235.1191
665.2771	241.3548
665.4322	241.198
665.5873	232.7492
665.7424	240.1231
665.8975	237.1559
666.0526	244.0302
666.2076	239.8256
666.3627	231.8755
666.5177	230.7715
666.6727	240.609
666.8278	238.3593
666.9828	236.2341
667.1378	240.103
667.2928	237.5751
667.4478	239.5683
667.6028	229.8813
667.7578	230.2778
667.9127	227.2035
668.0677	230.3602
668.2226	230.4816
668.3776	224.3447
668.5325	229.0838
668.6874	232.6741
668.8423	227.6073
668.9973	226.1248
669.1522	231.2867
669.3071	237.3811
669.4619	230.4749
669.6168	227.606
669.7717	226.5868
669.9265	225.4525
670.0814	224.8444
670.2362	223.9504
670.3911	227.1402
670.5459	227.781
670.7007	227.953
670.8555	219.5994
671.0103	219.1244
671.1651	224.065
671.3199	220.4169
671.4747	219.9383
671.6295	229.9462
671.7842	227.8527
671.939	228.197
672.0937	226.8147
672.2484	223.9667
672.4031	225.3989
672.5579	223.725
672.7126	223.1827
672.8673	228.257
673.022	226.8926
673.1767	223.2892
673.3314	222.0892
673.486	222.2396
673.6407	229.0754
673.7953	225.3044
673.95	221.0722
674.1046	222.702
674.2592	225.0981
674.4138	229.9628
674.5684	223.0406
674.723	223.5336
674.8776	218.5063
675.0322	223.1324
675.1868	222.0167
675.3414	219.699
675.4959	220.4519
675.6505	227.5118
675.805	225.4832
675.9595	223.5342
676.1141	217.326
676.2686	218.2146
676.4231	224.9761
676.5776	222.0242
676.7321	221.0513
676.8866	226.1902
677.041	217.1104
677.1955	216.2198
677.35	217.3505
677.5044	216.2178
677.6589	220.4145
677.8133	224.2093
677.9677	218.0194
678.1221	220.7105
678.2766	220.2152
678.4309	217.2588
678.5853	219.6462
678.7397	215.5579
678.8941	212.3568
679.0485	206.4959
679.2028	214.7968
679.3571	221.0167
679.5115	213.5388
679.6658	210.2147
679.8201	212.0161
679.9744	221.8804
680.1288	217.6202
680.2831	213.3131
680.4373	212.9898
680.5916	210.9616
680.7459	209.3868
680.9001	215.4452
681.0544	215.0458
681.2087	215.1527
681.3629	215.7456
681.5171	212.3093
681.6713	219.0446
681.8256	220.8863
681.9797	214.6158
682.134	207.6133
682.2881	209.9822
682.4423	213.7662
682.5965	206.5548
682.7507	205.6391
682.9048	208.0844
683.059	204.3633
683.2131	215.0307
683.3672	212.4602
683.5213	215.0843
683.6754	205.4596
683.8295	200.0624
683.9836	209.4495
684.1377	204.1165
684.2918	199.5638
684.4459	202.4232
684.5999	207.8449
684.754	203.3247
684.908	205.6973
685.062	210.9543
685.2161	202.0901
685.3701	202.7721
685.5241	208.3369
685.6781	206.2017
685.8321	204.7185
685.9861	206.6297
686.14	199.0027
686.294	199.1155
686.4479	199.0645
686.6019	191.4101
686.7559	185.0915
686.9098	174.244
687.0637	161.1371
687.2176	162.1376
687.3715	164.0689
687.5254	169.1484
687.6793	169.8033
687.8332	174.8529
687.9871	181.761
688.1409	189.1714
688.2947	192.4759
688.4486	191.2924
688.6024	185.5901
688.7563	189.1741
688.9101	191.5656
689.0639	180.9112
689.2177	177.0553
689.3715	178.5193
689.5253	179.3294
689.6791	178.4012
689.8328	184.9363
689.9866	186.5426
690.1403	187.4784
690.2941	185.2387
690.4478	186.2922
690.6015	193.6643
690.7552	189.4595
690.9089	184.8205
691.0626	186.188
691.2164	191.5512
691.37	192.7698
691.5237	189.8279
691.6774	188.7914
691.831	190.6662
691.9847	192.4044
692.1383	195.2963
692.2919	195.5174
692.4456	193.9341
692.5992	189.9558
692.7527	184.3717
692.9064	191.8877
693.0599	189.1751
693.2136	187.671
693.3671	186.8686
693.5207	190.2206
693.6742	185.8014
693.8278	192.941
693.9813	187.0291
694.1348	181.5918
694.2883	179.4702
694.4418	177.9302
694.5953	183.0754
694.7488	190.0786
694.9023	182.0413
695.0558	184.9655
695.2093	194.961
695.3627	188.9784
695.5162	182.7495
695.6696	184.0434
695.8231	186.3676
695.9764	183.364
696.1299	182.5249
696.2833	184.7138
696.4367	185.554
696.5901	186.8047
696.7435	185.9697
696.8968	191.6197
697.0502	194.0712
697.2036	191.0679
697.3569	191.0555
697.5102	190.9433
697.6635	190.4172
697.8168	190.8975
697.9702	183.7219
698.1235	185.4673
698.2768	187.6621
698.4301	192.9463
698.5833	185.3913
698.7366	182.2946
698.8898	179.8386
699.0431	182.7602
699.1964	186.1855
699.3495	180.6117
699.5028	179.2083
699.656	181.6938
699.8092	181.2213
699.9624	180.0571
700.1156	183.7604
700.2688	178.2875
700.4219	185.6642
700.5751	175.7579
700.7283	174.0563
700.8814	182.4329
701.0345	184.2011
701.1877	182.7017
701.3408	190.2753
701.4939	186.2668
701.647	178.0557
701.8001	177.8504
701.9532	181.6241
702.1063	183.1328
702.2593	181.0199
702.4124	172.3777
702.5654	180.0802
702.7184	179.9816
702.8715	177.6483
703.0245	181.4352
703.1776	188.6308
703.3305	182.1478
703.4835	184.1531
703.6365	185.0675
703.7895	185.1019
703.9424	184.6808
704.0954	175.9549
704.2484	179.3329
704.4013	182.6813
704.5543	185.9572
704.7072	186.9246
704.8601	181.6755
705.013	187.4905
705.1659	184.678
705.3188	184.825
705.4717	182.5647
705.6246	179.8829
705.7774	183.7993
705.9303	175.5112
706.0831	183.8705
706.236	177.6145
706.3888	176.5335
706.5416	180.2964
706.6944	179.1121
706.8472	181.9813
707	177.4375
707.1528	174.6169
707.3056	177.9158
707.4583	177.2967
707.6111	179.1138
707.7639	184.5187
707.9166	181.6468
708.0693	180.9447
708.222	184.1843
708.3748	181.2675
708.5275	173.2994
708.6802	172.2378
708.8328	176.0111
708.9855	179.3182
709.1382	178.3467
709.2909	178.3455
709.4435	177.4065
709.5962	178.7851
709.7488	184.2073
709.9014	179.9203
710.054	176.9004
710.2067	185.4561
710.3593	179.1353
710.5118	179.4841
710.6644	180.2451
710.817	173.719
710.9695	178.0444
711.1221	176.722
711.2747	175.0341
711.4272	173.3532
711.5797	173.3555
711.7322	178.6538
711.8848	177.6684
712.0373	177.8662
712.1898	182.0972
712.3422	183.0666
712.4948	178.706
712.6472	173.8918
712.7996	174.8033
712.9521	174.9161
713.1046	172.2787
713.257	166.0339
713.4094	169.382
713.5618	176.7551
713.7142	176.718
713.8666	179.0879
714.019	182.0484
714.1714	175.9678
714.3237	173.979
714.4761	163.1367
714.6285	169.5144
714.7808	171.1444
714.9331	173.2718
715.0854	172.8973
715.2378	170.5273
715.3901	169.9483
715.5424	165.4388
715.6947	174.3328
715.8469	179.6104
715.9992	179.9324
716.1515	174.4633
716.3037	169.302
716.456	164.6806
716.6082	169.941
716.7604	162.9772
716.9127	164.8335
717.0649	160.8972
717.2171	151.8129
717.3693	146.3388
717.5214	148.4424
717.6736	156.6681
717.8258	156.7083
717.978	148.4452
718.1301	152.6483
718.2822	154.5474
718.4344	155.4294
718.5865	147.4215
718.7386	140.7018
718.8907	142.4645
719.0428	151.8943
719.1949	150.353
719.3469	145.6359
719.499	144.1125
719.6511	142.9328
719.8031	152.3262
719.9551	153.3379
720.1072	150.2519
720.2592	143.7431
720.4112	146.8393
720.5632	144.8826
720.7152	154.7058
720.8672	155.8815
721.0192	159.903
721.1711	161.2643
721.3231	158.7314
721.475	164.3803
721.627	163.7838
721.7789	165.339
721.9308	166.0731
722.0828	166.4139
722.2347	155.3259
722.3866	160.3056
722.5385	166.1559
722.6903	160.2812
722.8422	163.8327
722.9941	164.5545
723.1459	151.7555
723.2977	151.2625
723.4496	148.4533
723.6014	147.2668
723.7532	153.7356
723.905	151.0612
724.0568	149.6763
724.2086	151.0258
724.3604	155.0775
724.5121	150.3676
724.6639	147.5833
724.8157	149.9418
724.9674	149.6654
725.1191	146.2163
725.2709	146.2454
725.4226	148.516
725.5743	152.5692
725.726	152.7744
725.8777	151.7358
726.0294	148.3426
726.181	146.1537
726.3327	144.8863
726.4844	146.26
726.636	152.1576
726.7877	155.7803
726.9393	151.1794
727.0909	149.3691
727.2425	152.1732
727.3941	154.7049
727.5457	144.7444
727.6973	144.5635
727.8488	146.3975
728.0004	142.6193
728.1519	144.8552
728.3035	146.3064
728.455	154.9638
728.6066	151.3658
728.7581	148.7705
728.9095	143.7515
729.0611	141.9043
729.2126	141.5598
729.364	143.5015
729.5155	146.0473
729.667	150.8087
729.8184	155.6922
729.9698	152.824
730.1213	145.9385
730.2727	143.8439
730.4241	143.7408
730.5756	147.868
730.7269	151.7119
730.8784	156.1764
731.0297	153.119
731.1811	145.517
731.3325	153.6496
731.4838	149.4004
731.6351	148.6202
731.7865	150.5439
731.9378	152.2569
732.0891	155.8092
732.2404	154.2292
732.3917	148.8645
732.543	149.1909
732.6943	152.2223
732.8456	154.7026
732.9968	152.8078
733.1481	147.1822
733.2993	152.5123
733.4506	148.5331
733.6018	153.166
733.753	154.7528
733.9042	158.6145
734.0554	157.5154
734.2066	156.2903
734.3578	157.0394
734.509	146.6918
734.6602	147.5305
734.8113	157.4985
734.9624	150.9676
735.1136	148.2285
735.2647	149.0881
735.4158	149.9252
735.5669	149.4282
735.718	149.7774
735.8691	154.0724
736.0201	153.5698
736.1713	155.5276
736.3223	145.6215
736.4733	143.4316
736.6244	151.4476
736.7755	155.0846
736.9265	147.4351
737.0775	155.8689
737.2285	156.2555
737.3795	150.4279
737.5305	153.4657
737.6815	156.8065
737.8324	153.973
737.9834	146.5591
738.1343	152.8941
738.2853	153.8947
738.4362	146.1341
738.5871	150.7892
738.738	152.5379
738.8889	148.1372
739.0399	145.7328
739.1907	144.4969
739.3416	152.0332
739.4925	153.4419
739.6433	145.7505
739.7942	148.1684
739.945	146.8446
740.0958	152.3282
740.2467	153.8065
740.3975	155.0363
740.5483	152.6687
740.6991	146.3363
740.8499	143.6573
741.0007	141.79
741.1514	143.1023
741.3022	147.2687
741.4529	151.1985
741.6036	148.8123
741.7544	146.5255
741.9051	141.6582
742.0558	151.0238
742.2065	150.1953
742.3572	142.3474
742.5079	141.9115
742.6586	149.6011
742.8093	148.0291
742.9599	144.2831
743.1105	141.5545
743.2612	143.8362
743.4118	143.134
743.5624	148.1785
743.7131	147.6025
743.8636	147.6553
744.0142	139.2709
744.1648	143.3445
744.3154	144.4201
744.4659	140.2393
744.6165	140.1474
744.767	137.4727
744.9176	145.4334
745.0681	148.3098
745.2186	151.2237
745.3691	150.6783
745.5197	142.8861
745.6702	141.4121
745.8206	143.2887
745.9711	146.903
746.1215	142.182
746.272	142.3187
746.4224	138.0068
746.5729	140.0128
746.7233	142.9707
746.8737	141.8981
747.0241	143.1285
747.1745	146.6865
747.3249	140.3325
747.4753	140.8495
747.6257	139.8415
747.776	138.5067
747.9264	143.5623
748.0767	140.0836
748.2271	142.2004
748.3774	142.0512
748.5276	138.83
748.678	145.2041
748.8282	144.9538
748.9786	143.0515
749.1288	136.1461
749.2791	138.1516
749.4294	139.9442
749.5796	137.2194
749.7299	131.4403
749.8801	136.7884
750.0303	132.635
750.1805	134.0937
750.3307	135.5281
750.4809	135.5594
750.6311	134.0099
750.7813	134.087
750.9314	138.8413
751.0816	132.3194
751.2318	133.4248
751.3818	132.4892
751.532	138.3446
751.6821	139.6406
751.8322	134.4548
751.9823	135.9783
752.1324	137.4019
752.2825	136.7252
752.4326	139.7869
752.5826	130.2827
752.7327	134.7195
752.8827	132.4595
753.0327	132.6369
753.1827	128.417
753.3328	131.7051
753.4828	126.4633
753.6328	125.8066
753.7828	126.8721
753.9327	134.4258
754.0827	131.4256
754.2327	126.1871
754.3826	131.231
754.5325	137.8373
754.6825	132.8996
754.8324	128.1148
754.9823	130.7565
755.1322	130.9032
755.2821	125.5499
755.432	130.4951
755.5818	124.1341
755.7318	125.2373
755.8816	123.0743
756.0314	119.7182
756.1813	127.0023
756.3311	132.9469
756.4809	126.6859
756.6307	125.2491
756.7805	124.831
756.9303	122.6642
757.0801	129.2008
757.2299	124.6056
757.3796	130.0237
757.5294	130.5516
757.6791	130.1179
757.8289	126.066
757.9786	131.1717
758.1283	125.8788
758.278	118.4987
758.4277	129.1411
758.5773	122.0419
758.7271	128.4268
758.8767	117.1931
759.0264	122.2522
759.176	123.9134
759.3256	115.6262
759.4753	107.5036
759.6249	94.32913
759.7745	87.18779
759.9241	83.19796
760.0737	78.20939
760.2233	77.9438
760.3729	72.11676
760.5224	65.80383
760.6719	63.68604
760.8215	70.36318
760.971	69.30517
761.1205	72.19429
761.2701	74.40741
761.4196	77.89864
761.5691	83.7973
761.7186	93.50709
761.868	100.2011
762.0175	97.78304
762.167	99.68291
762.3164	90.80148
762.4659	85.41827
762.6153	80.88249
762.7647	81.59227
762.9141	81.04027
763.0635	83.97484
763.2129	93.05286
763.3623	88.26074
763.5117	86.95236
763.661	88.78017
763.8104	85.38664
763.9597	88.16855
764.1091	89.31446
764.2584	92.0687
764.4077	87.22968
764.557	87.52371
764.7063	87.67135
764.8556	93.2345
765.0049	90.69657
765.1541	100.8717
765.3034	98.70525
765.4526	96.60036
765.6019	98.87405
765.7511	97.65601
765.9003	98.8678
766.0496	95.05125
766.1987	96.88171
766.348	101.7573
766.4971	104.8316
766.6463	96.28399
766.7955	101.734
766.9446	101.0122
767.0938	100.1647
767.2429	101.4515
767.392	106.2547
767.5411	107.984
767.6902	104.8881
767.8394	109.435
767.9884	106.9345
768.1375	108.252
768.2866	109.7038
768.4356	109.9993
768.5847	109.1661
768.7337	101.404
768.8828	105.2474
769.0317	110.4328
769.1808	109.7455
769.3298	107.0438
769.4788	106.3362
769.6277	109.4765
769.7767	111.0027
769.9257	115.8935
770.0746	109.6619
770.2236	111.3063
770.3725	107.4396
770.5214	100.3437
770.6703	101.2617
770.8193	110.6326
770.9681	107.2892
771.1171	108.9357
771.2659	109.6978
771.4148	108.3543
771.5637	107.5731
771.7125	100.3457
771.8613	106.9192
772.0101	109.8488
772.159	108.074
772.3078	107.92
772.4566	104.9371
772.6054	100.1568
772.7542	104.651
772.903	103.9578
773.0517	103.0407
773.2004	101.3979
773.3492	97.66015
773.4979	98.36415
773.6467	106.599
773.7953	103.401
773.944	106.7284
774.0928	106.7309
774.2415	106.0477
774.3901	102.468
774.5388	105.0297
774.6874	106.3357
774.8361	103.7187
774.9847	98.24568
775.1334	102.0888
775.282	100.149
775.4305	103.5987
775.5792	101.4285
775.7277	99.91537
775.8763	103.7573
776.0249	100.9487
776.1735	104.1111
776.322	104.8942
776.4705	101.3334
776.6191	100.7222
776.7676	99.55656
776.9161	99.46063
777.0646	99.92316
777.2131	100.0907
777.3616	101.7159
777.5101	97.21832
777.6585	94.38304
777.8069	98.66147
777.9554	101.8181
778.1038	100.5202
778.2523	99.8271
778.4007	101.0727
778.5491	95.73598
778.6974	95.47611
778.8459	96.84408
778.9942	100.997
779.1426	100.6156
779.291	102.2701
779.4393	102.6478
779.5876	95.95472
779.736	98.5594
779.8843	98.40543
780.0326	98.84621
780.1809	95.80357
780.3292	97.66618
780.4775	95.81569
780.6257	96.33778
780.774	97.70192
780.9222	94.81087
781.0704	97.81499
781.2187	98.08384
781.3669	95.56467
781.5151	92.65158
781.6633	93.28609
781.8115	96.29313
781.9597	97.9017
782.1078	95.09696
782.256	101.7887
782.4042	97.46915
782.5523	93.79914
782.7004	94.54507
782.8486	98.4767
782.9967	96.44387
783.1448	94.81806
783.2929	94.97086
783.441	93.42448
783.5891	95.0154
783.7371	94.79964
783.8851	95.13729
784.0332	90.88035
784.1812	94.79201
784.3293	98.88351
784.4773	88.34456
784.6253	88.49645
784.7733	97.34362
784.9213	93.37293
785.0692	95.36549
785.2172	92.95161
785.3652	90.44616
785.5131	88.43617
785.6611	91.68352
785.809	92.35829
785.9569	88.29948
786.1048	93.24434
786.2527	90.23347
786.4006	92.76582
786.5485	86.89426
786.6964	89.82639
786.8442	92.35069
786.9921	89.75902
787.1399	88.20425
787.2877	91.84299
787.4355	93.05824
787.5833	88.49146
787.7311	92.27634
787.8789	91.07084
788.0267	86.32071
788.1745	87.10819
788.3223	90.3257
788.47	93.26746
788.6177	87.29552
788.7654	86.36737
788.9132	88.8608
789.0609	91.5718
789.2086	89.40152
789.3563	84.58333
789.504	86.93324
789.6517	85.93407
789.7993	85.39967
789.947	87.53078
790.0946	85.9666
790.2422	83.7979
790.3898	85.93124
790.5375	92.5439
790.6851	95.8579
790.8326	89.86702
790.9802	83.61889
791.1278	84.97898
791.2754	79.33772
791.423	88.10054
791.5705	83.66705
791.718	84.64386
791.8655	82.06236
792.0131	82.81419
792.1606	82.87336
792.308	84.44975
792.4556	87.51511
792.603	82.54225
792.7505	83.83264
792.8979	85.7113
793.0454	78.77537
793.1928	78.68166
793.3403	85.43993
793.4877	87.54123
793.6351	82.02611
793.7825	77.77982
793.9299	85.34774
794.0772	90.28667
794.2246	80.73254
794.3719	81.96946
794.5193	83.51634
794.6666	77.32572
794.814	78.62803
794.9613	85.1424
795.1086	87.38857
795.2559	86.58542
795.4032	81.49708
795.5505	83.93111
795.6978	79.02379
795.845	81.09027
795.9922	81.17496
796.1395	79.94596
796.2867	86.66571
796.4339	79.1087
796.5811	78.45383
796.7283	81.91824
796.8755	81.07217
797.0227	76.77348
797.1699	78.38914
797.317	85.45911
797.4642	80.19656
797.6113	77.22192
797.7584	76.62376
797.9056	82.57878
798.0527	83.31642
798.1998	81.36963
798.3469	81.07206
798.494	79.10395
798.641	79.73269
798.7881	83.3553
798.9351	78.48955
799.0822	72.41805
799.2292	75.1841
799.3762	78.04951
799.5232	81.52199
799.6702	84.02673
799.8172	78.21154
799.9642	74.99443
800.1111	80.53259
800.2581	80.54627
800.4051	75.15881
800.552	77.43577
800.6989	78.19791
800.8458	79.00156
800.9927	76.04854
801.1396	72.81875
801.2866	77.20477
801.4334	70.32671
801.5803	69.49722
801.7272	77.62502
801.874	78.48615
802.0209	77.76766
802.1677	74.68729
802.3145	73.6301
802.4613	73.78947
802.6081	73.57103
802.7549	70.85284
802.9017	67.52243
803.0485	71.9733
803.1952	74.78693
803.342	74.07218
803.4887	73.66634
803.6354	74.93043
803.7822	79.40501
803.9289	79.4502
804.0756	75.68259
804.2223	77.12653
804.369	81.689
804.5156	74.99287
804.6623	71.6852
804.8089	74.44802
804.9556	72.84241
805.1022	75.30507
805.2488	77.01147
805.3954	71.03334
805.542	69.28159
805.6886	70.17908
805.8352	71.97263
805.9818	75.15709
806.1283	71.88537
806.2749	74.96284
806.4214	73.79036
806.5679	76.4679
806.7145	72.48504
806.861	71.41033
807.0074	72.19083
807.154	70.20357
807.3004	71.65704
807.4469	75.22527
807.5934	74.75946
807.7398	72.23743
807.8862	73.15245
808.0327	76.43591
808.1791	73.64893
808.3255	69.77976
808.4719	72.03457
808.6183	67.93812
808.7647	71.04207
808.9111	70.91313
809.0574	69.83606
809.2037	67.1562
809.3501	67.63981
809.4965	73.46154
809.6428	69.04198
809.7891	62.95569
809.9354	71.51688
810.0817	67.53632
810.2279	67.26733
810.3742	67.14002
810.5204	66.41534
810.6667	64.9497
810.8129	67.84734
810.9592	64.84257
811.1054	67.82197
811.2516	64.52249
811.3978	62.49612
811.5439	70.34171
811.6901	63.32277
811.8363	63.36139
811.9825	64.63055
812.1286	61.25745
812.2748	70.37827
812.4209	67.38206
812.567	65.38365
812.7131	64.55003
812.8592	63.41623
813.0053	68.57296
813.1514	66.0289
813.2974	62.6634
813.4435	57.87421
813.5895	63.02295
813.7356	63.39773
813.8816	61.15482
814.0276	59.26177
814.1736	60.80661
814.3196	56.30579
814.4656	62.02621
814.6116	60.68251
814.7576	57.80794
814.9035	61.51601
815.0494	58.72305
815.1954	60.89365
815.3413	56.78771
815.4872	61.32188
815.6331	66.25322
815.779	64.00684
815.9249	57.39959
816.0707	61.07236
816.2166	55.79441
816.3625	54.16148
816.5083	59.50298
816.6542	53.28878
816.8	59.02831
816.9458	60.30573
817.0916	65.12512
817.2374	53.89942
817.3832	62.13016
817.5289	55.39213
817.6747	55.6251
817.8204	53.39103
817.9662	53.59504
818.1119	54.20212
818.2576	56.60411
818.4034	58.23041
818.5491	55.37014
818.6948	59.06524
818.8405	58.91774
818.9861	53.22224
819.1318	53.79892
819.2774	54.47549
819.423	56.28836
819.5687	57.8516
819.7143	56.85509
819.8599	56.81399
820.0055	57.87812
820.1511	51.87719
820.2967	54.55909
820.4422	60.94606
820.5878	58.39894
820.7333	57.88094
820.8788	66.78181
821.0244	59.93873
821.1699	55.70473
821.3154	56.20594
821.4609	53.16249
821.6064	54.9241
821.7519	54.68275
821.8973	56.83901
822.0428	56.62738
822.1882	58.49579
822.3337	53.42701
822.4791	50.9614
822.6245	58.277
822.7699	52.30083
822.9153	49.57231
823.0607	49.44505
823.2061	51.06165
823.3514	56.65071
823.4968	51.83754
823.6422	49.83663
823.7875	53.36274
823.9328	53.59266
824.0781	51.07922
824.2234	57.08392
824.3687	57.57151
824.514	55.24434
824.6592	58.48263
824.8045	55.45274
824.9498	54.1456
825.095	57.8012
825.2402	52.36373
825.3854	52.67093
825.5306	57.32115
825.6758	55.92115
825.821	54.63145
825.9662	53.94636
826.1114	56.5408
826.2565	54.12482
826.4017	51.86916
826.5468	54.42432
826.692	55.8817
826.837	56.3048
826.9822	55.1937
827.1273	55.62367
827.2723	56.69742
827.4174	56.44168
827.5625	57.68019
827.7075	54.91135
827.8526	54.75356
827.9976	51.45561
828.1426	51.40892
828.2877	50.99606
828.4327	56.56391
828.5776	51.30829
828.7227	53.63535
828.8676	52.02612
829.0126	50.79362
829.1575	46.90588
829.3024	51.12738
829.4474	54.1642
829.5923	53.55501
829.7372	50.47281
829.8821	54.7963
830.027	51.69645
830.1719	49.16485
830.3168	52.52242
830.4616	53.1022
830.6064	52.88649
830.7513	54.61807
830.8961	52.51441
831.041	48.67068
831.1857	49.40963
831.3306	54.07058
831.4753	55.79025
831.6201	52.73251
831.7649	51.32361
831.9096	53.35428
832.0544	52.83879
832.1991	55.01261
832.3438	54.47482
832.4885	51.04476
832.6332	48.52624
832.778	48.77975
832.9226	47.89542
833.0673	50.22898
833.2119	49.9654
833.3566	46.69444
833.5012	50.17327
833.6459	52.97415
833.7905	51.80558
833.9351	55.47852
834.0797	52.42788
834.2243	51.33816
834.3688	55.2678
834.5134	50.00314
834.658	53.06894
834.8026	50.05711
834.9471	52.0063
835.0916	57.93383
835.2361	54.46505
835.3806	55.23814
835.5251	53.08139
835.6696	55.33848
835.8141	52.36736
835.9586	51.35249
836.103	52.91152
836.2474	50.4812
836.3918	50.93793
836.5363	50.82153
836.6807	47.08009
836.8251	51.14868
836.9695	52.48977
837.1138	52.31351
837.2582	57.19527
837.4026	59.22379
837.5469	51.81808
837.6913	49.91505
837.8356	47.88384
837.9799	53.20148
838.1242	49.36766
838.2686	49.62122
838.4128	46.71159
838.5571	44.54734
838.7014	55.06197
838.8456	52.99937
838.9899	52.43591
839.1341	50.0623
839.2783	50.23336
839.4225	49.19947
839.5667	48.91758
839.7109	49.28405
839.8551	48.07459
839.9993	48.88382
840.1434	49.37365
840.2876	50.53684
840.4317	54.53424
840.5759	50.83898
840.72	50.59951
840.8641	45.2303
841.0082	46.94476
841.1523	53.0941
841.2963	49.40005
841.4404	48.75048
841.5845	46.47123
841.7285	45.94245
841.8726	45.736
842.0165	48.35448
842.1606	47.77475
842.3046	50.24729
842.4485	48.41046
842.5925	47.69421
842.7365	49.30938
842.8805	46.61014
843.0244	46.78681
843.1684	37.43987
843.3123	41.67638
843.4562	46.75682
843.6002	44.17755
843.744	49.53595
843.8879	49.06559
844.0318	45.21689
844.1757	48.05492
844.3195	47.96866
844.4634	46.91833
844.6072	47.4622
844.751	47.31911
844.8948	44.49608
845.0386	46.84082
845.1824	48.03782
845.3262	44.6976
845.47	47.65169
845.6138	46.66041
845.7575	46.52062
845.9012	46.61977
846.045	45.2212
846.1887	50.66673
846.3324	44.18922
846.4761	47.93713
846.6198	52.65352
846.7635	42.70522
846.9071	48.43532
847.0508	45.74955
847.1944	50.02163
847.3381	45.49146
847.4817	51.39212
847.6253	46.41959
847.7689	45.91462
847.9125	48.7399
848.0561	55.29752
848.1996	52.12857
848.3432	45.39995
848.4868	47.45779
848.6303	43.45765
848.7738	51.00465
848.9174	42.39853
849.0609	44.23412
849.2043	45.28938
849.3478	43.83668
849.4913	41.2312
849.6348	41.50898
849.7782	45.09142
849.9217	41.97132
850.0651	42.20965
850.2086	43.17513
850.3519	46.24791
850.4954	47.5003
850.6387	46.03958
850.7821	43.81852
850.9255	47.15939
851.0688	45.36171
851.2122	48.30743
851.3555	49.52717
851.4988	47.50363
851.6422	44.06036
851.7855	45.75367
851.9288	38.78832
852.0721	49.39918
852.2153	42.58516
852.3586	42.85022
852.5018	46.0174
852.6451	41.43377
852.7883	41.38805
852.9315	38.9077
853.0748	42.44083
853.218	44.72435
853.3611	45.20981
853.5043	42.25148
853.6475	42.02907
853.7906	42.44851
853.9338	37.53512
854.0769	41.11249
854.22	40.46904
854.3632	40.24024
854.5063	38.80521
854.6494	39.46617
854.7924	37.68315
854.9355	45.33796
855.0786	46.40181
855.2216	39.03171
855.3647	41.74649
855.5077	41.13735
855.6507	39.77889
855.7937	44.43192
855.9367	45.14834
856.0797	46.87737
856.2227	45.65512
856.3657	44.77875
856.5086	41.5601
856.6516	43.55091
856.7945	40.46087
856.9374	42.00204
857.0803	37.5542
857.2232	40.85962
857.3661	46.03039
857.509	44.64452
857.6519	39.45749
857.7947	40.88198
857.9376	40.88484
858.0804	41.96595
858.2232	42.42845
858.366	46.95973
858.5089	50.22799
858.6516	44.27874
858.7944	45.45587
858.9372	42.14738
859.08	42.92053
859.2227	40.54625
859.3654	43.93527
859.5082	44.4677
859.6509	39.0201
859.7936	42.8176
859.9363	41.63533
860.079	43.18295
860.2217	38.33394
860.3643	42.53822
860.507	44.51678
860.6496	41.76692
860.7922	41.01119
860.9349	42.5364
861.0775	38.69158
861.2201	41.77673
861.3627	43.70797
861.5052	42.43346
861.6478	38.06495
861.7904	42.87136
861.9329	40.53153
862.0755	46.09801
862.218	43.70186
862.3605	34.95874
862.503	34.68258
862.6455	39.87642
862.788	39.38868
862.9305	38.32138
863.0729	37.64762
863.2154	39.19016
863.3578	41.30984
863.5002	39.63192
863.6426	38.23049
863.7851	36.58538
863.9275	39.43043
864.0698	32.83544
864.2122	33.7821
864.3546	35.88045
864.4969	37.92996
864.6393	40.50003
864.7816	38.63727
864.924	38.11873
865.0662	40.49964
865.2086	37.98532
865.3508	37.42103
865.4931	38.17794
865.6354	41.85458
865.7776	38.99147
865.9199	40.15897
866.0621	38.2411
866.2043	35.39563
866.3466	32.6189
866.4888	37.78347
866.6309	36.26263
866.7731	36.16857
866.9153	37.27188
867.0574	36.20937
867.1996	36.34846
867.3417	39.35344
867.4839	40.32621
867.626	36.0785
867.7681	40.40937
867.9102	35.03817
868.0522	34.97784
868.1943	36.74837
868.3364	40.22778
868.4785	40.41901
868.6205	37.48904
868.7625	41.74527
868.9045	35.39272
869.0465	33.20028
869.1885	41.3163
869.3305	35.2368
869.4725	35.09659
869.6144	38.64547
869.7564	39.49529
869.8983	33.74864
870.0403	36.75442
870.1822	36.95148
870.3241	36.42027
870.466	41.26913
870.6079	36.35263
870.7498	37.65752
870.8916	37.33641
871.0335	32.98558
871.1754	36.79583
871.3171	36.25281
871.459	38.48736
871.6008	31.96715
871.7426	35.71212
871.8844	36.29371
872.0262	36.45757
872.1679	39.97161
872.3097	35.03926
872.4514	37.3759
872.5931	37.48972
872.7349	36.85881
872.8766	39.45246
873.0183	39.43488
873.16	37.77106
873.3017	39.71911
873.4434	39.00611
873.585	37.28878
873.7266	37.49597
873.8683	34.28614
874.0099	30.98295
874.1516	36.92739
874.2932	36.39571
874.4348	35.1128
874.5763	37.06218
874.7179	37.45238
874.8594	38.49645
875.001	31.78189
875.1425	31.84081
875.2841	37.03329
875.4256	34.14646
875.5671	34.04007
875.7086	31.1531
875.85	31.51568
875.9915	37.18456
876.133	34.00515
876.2744	32.62178
876.4159	39.86385
876.5573	38.0105
876.6987	34.78714
876.8401	31.4554
876.9815	33.24489
877.1229	34.29296
877.2643	31.29543
877.4056	31.44293
877.547	34.80708
877.6884	32.07158
877.8297	36.01563
877.971	35.90319
878.1123	38.43283
878.2536	32.82533
878.3949	34.7386
878.5362	31.76351
878.6774	29.45498
878.8187	34.65386
878.9599	36.67996
879.1011	34.95002
879.2424	31.06483
879.3836	33.45299
879.5248	31.2095
879.666	33.0934
879.8071	30.18986
879.9483	30.8496
880.0895	31.65837
880.2306	30.83574
880.3718	37.43092
880.5129	36.188
880.654	36.09346
880.7951	29.72322
880.9362	31.42382
881.0773	33.02437
881.2183	32.95153
881.3594	32.74575
881.5004	32.45195
881.6414	31.16214
881.7825	34.03436
881.9235	30.43715
882.0645	28.59114
882.2054	32.80118
882.3464	29.79236
882.4874	28.89814
882.6284	31.86448
882.7693	32.77665
882.9103	30.4849
883.0512	33.0561
883.1921	32.29292
883.333	29.78275
883.4739	33.14143
883.6147	33.53684
883.7556	30.79509
883.8965	30.69215
884.0374	26.60891
884.1782	33.27329
884.319	34.0429
884.4598	34.82328
884.6006	32.97805
884.7414	30.16179
884.8822	30.64493
885.0229	32.67384
885.1637	36.25496
885.3044	30.73786
885.4452	31.37056
885.5859	32.15993
885.7266	31.44562
885.8673	34.39915
886.008	32.53131
886.1487	30.58525
886.2894	28.19896
886.43	28.28559
886.5707	32.35344
886.7113	36.84678
886.8519	34.95389
886.9926	30.67318
887.1331	29.60434
887.2737	33.24969
887.4143	31.09461
887.5549	34.1212
887.6954	33.44893
887.836	27.52059
887.9765	29.77055
888.1171	34.62961
888.2576	32.4095
888.3981	27.52455
888.5386	30.0939
888.679	31.63625
888.8195	32.03323
888.96	27.08219
889.1004	27.5406
889.2408	31.54055
889.3813	30.27408
889.5217	29.06987
889.6621	31.28633
889.8025	26.74415
889.9429	28.80289
890.0833	32.4285
890.2236	28.90563
890.364	28.40209
890.5043	26.45762
890.6446	25.5986
890.7849	29.28311
890.9252	34.11869
891.0655	33.76768
891.2058	30.68165
891.3461	29.55777
891.4863	30.41637
891.6266	29.94945
891.7668	30.02411
891.907	28.57689
892.0472	28.84117
892.1874	26.87563
892.3276	28.7974
892.4678	29.99458
892.608	30.71404
892.7481	28.50053
892.8883	28.9709
893.0284	33.45201
893.1685	30.7737
893.3087	27.19839
893.4487	30.83153
893.5889	26.42892
893.7289	31.8467
893.869	29.37519
894.009	28.02455
894.1491	29.39989
894.2891	30.08401
894.4291	28.43772
894.5692	26.92909
894.7092	20.43926
894.8491	25.68448
894.9891	31.44979
895.1291	30.16678
895.269	28.86988
895.409	28.49823
895.549	27.45759
895.6888	24.38351
895.8288	30.16325
895.9687	29.58899
896.1086	30.39402
896.2484	29.56371
896.3883	27.19049
896.5281	20.96615
896.668	25.25511
896.8079	28.47571
896.9476	23.66829
897.0875	27.8112
897.2272	28.49597
897.3671	24.55583
897.5068	29.9683
897.6466	25.53987
897.7864	25.50045
897.9261	27.87905
898.0658	30.45103
898.2056	28.56581
898.3453	26.19196
898.4849	25.86433
898.6246	25.8337
898.7643	25.40368
898.904	25.42199
899.0436	23.50223
899.1833	30.16912
899.3229	25.46372
899.4625	24.51843
899.6021	23.29445
899.7417	30.0775
899.8813	24.70303
900.0209	26.00128
900.1605	30.2023
900.3	23.31773
900.4395	29.17421
900.579	23.84145
900.7186	25.9712
900.8581	25.61396
900.9976	23.11748
901.1371	26.43532
901.2766	19.97649
901.416	23.42034
901.5555	26.97187
901.6949	23.84641
901.8344	28.34701
901.9738	25.91866
902.1132	22.81791
902.2526	25.57134
902.3919	25.9967
902.5313	24.53316
902.6707	23.16079
