SPECTRUM DATA FILE
SpectrumCount:	1
PixelCount:	3648
UserName:	ToughBook User
SampleName:	
LightSource:	
Comments:	
DeviceName:	Qwave
DeviceManufacturer:	Broadcom
DeviceSerialNo:	11311

Name:	last spectrum
Date:	2024-05-02T14:49:01.1215216+02:00
ExposureTime:	0.02
TemporalAvg:	1
IntensityUnit:	normalizedCounts
CCDLoadLevel:	0.06753083
Temperature:	31.82086
DiagramColor:	200
ProcessingSteps:	335

Wavelength [nm]	Intensity1
334.421	32.29577
334.5891	31.88709
334.7573	27.722
334.9254	28.84028
335.0935	27.27299
335.2616	25.72031
335.4297	27.83883
335.5978	28.0494
335.7659	30.51263
335.934	24.17793
336.1021	23.11993
336.2701	26.57128
336.4382	32.52515
336.6063	30.06411
336.7744	32.50837
336.9424	31.78053
337.1105	28.80234
337.2785	28.88141
337.4466	27.83119
337.6146	22.22269
337.7827	28.14648
337.9507	26.13415
338.1187	29.41366
338.2867	30.46057
338.4548	30.62815
338.6228	26.77695
338.7908	29.27564
338.9588	24.92936
339.1268	30.4215
339.2948	29.23402
339.4628	29.31101
339.6308	30.24665
339.7988	30.80937
339.9667	27.19365
340.1347	29.48539
340.3027	29.69305
340.4707	27.03176
340.6386	22.7429
340.8066	26.69415
340.9745	22.79231
341.1425	25.29027
341.3104	29.0535
341.4784	22.76448
341.6463	29.20992
341.8142	32.57428
341.9821	27.87451
342.1501	24.83435
342.318	26.00885
342.4859	23.65496
342.6538	29.14149
342.8217	29.25619
342.9896	30.53602
343.1575	30.72086
343.3254	31.28232
343.4933	30.32084
343.6612	33.75903
343.829	33.38465
343.9969	30.99964
344.1648	29.7051
344.3326	24.75189
344.5005	28.32173
344.6683	29.22855
344.8362	32.0055
345.004	32.10648
345.1719	34.84747
345.3397	28.65693
345.5075	30.22238
345.6754	31.32071
345.8432	28.02355
346.011	28.04649
346.1788	31.16104
346.3466	28.91686
346.5144	35.0185
346.6822	36.32697
346.85	33.00773
347.0178	29.73536
347.1856	27.24424
347.3534	27.25663
347.5211	33.07589
347.6889	32.54202
347.8567	29.88573
348.0244	32.56242
348.1922	31.77465
348.3599	27.41145
348.5277	28.8101
348.6954	31.51055
348.8632	32.73433
349.0309	31.5519
349.1986	30.10836
349.3663	32.49832
349.5341	30.31048
349.7018	29.80508
349.8695	36.24229
350.0372	30.68119
350.2049	34.28661
350.3726	33.67961
350.5403	32.13429
350.7079	29.58923
350.8756	28.94647
351.0433	30.31054
351.211	25.36646
351.3786	27.14305
351.5463	34.64175
351.714	35.19079
351.8816	32.41768
352.0493	30.06653
352.2169	33.85095
352.3846	30.53848
352.5522	34.14956
352.7198	30.572
352.8875	30.32154
353.0551	34.08659
353.2227	33.23373
353.3903	33.91998
353.5579	32.60644
353.7255	35.8927
353.8931	37.11459
354.0607	31.69625
354.2283	36.56723
354.3958	38.36641
354.5634	32.56838
354.731	31.61163
354.8986	33.69245
355.0661	40.05278
355.2337	39.27199
355.4012	37.87658
355.5688	34.60725
355.7363	32.61277
355.9039	37.14511
356.0714	34.5586
356.239	38.12992
356.4065	37.44627
356.574	33.81912
356.7415	32.96564
356.909	29.95599
357.0765	31.55058
357.244	31.08145
357.4115	33.94601
357.579	36.97379
357.7465	35.97319
357.914	29.94581
358.0815	28.31566
358.249	29.50949
358.4164	29.29455
358.5839	33.7307
358.7513	28.77842
358.9188	31.62785
359.0862	34.47433
359.2537	33.25466
359.4211	33.5926
359.5886	34.51096
359.756	38.34006
359.9234	36.38462
360.0909	39.33688
360.2583	35.20966
360.4257	36.1232
360.5931	30.6121
360.7605	32.34053
360.9279	33.11633
361.0953	35.77073
361.2627	34.79895
361.4301	33.87298
361.5974	35.04988
361.7648	32.18936
361.9322	30.83333
362.0995	35.53333
362.2669	36.20663
362.4343	35.98544
362.6016	41.92264
362.769	39.63179
362.9363	40.82469
363.1036	39.31248
363.271	38.93784
363.4383	35.87164
363.6056	34.58276
363.7729	31.2015
363.9402	39.74921
364.1075	43.84635
364.2748	42.99765
364.4421	40.3322
364.6094	40.33383
364.7767	38.57935
364.944	41.08691
365.1113	41.44914
365.2786	36.14989
365.4458	43.03798
365.6131	39.56559
365.7803	40.2479
365.9476	43.70087
366.1148	43.24186
366.2821	42.33842
366.4493	43.04879
366.6166	40.46763
366.7838	43.80867
366.951	41.18836
367.1182	45.54493
367.2855	40.15622
367.4527	37.21213
367.6199	42.52379
367.7871	38.92892
367.9543	39.41029
368.1215	35.28026
368.2886	38.82793
368.4558	39.35152
368.623	37.57437
368.7902	39.05828
368.9573	42.46796
369.1245	45.22001
369.2917	45.42245
369.4588	45.57148
369.6259	41.19479
369.7931	42.78103
369.9602	43.02911
370.1274	44.9711
370.2945	44.77882
370.4616	41.28252
370.6287	40.93913
370.7958	36.49989
370.963	38.38436
371.1301	44.6025
371.2971	42.93927
371.4643	45.42874
371.6313	42.02986
371.7984	42.96217
371.9655	42.83316
372.1326	42.75038
372.2997	45.55145
372.4667	47.24206
372.6338	46.01529
372.8008	42.64988
372.9679	42.91165
373.1349	36.1957
373.3019	40.67049
373.469	39.98122
373.636	44.77961
373.803	48.49836
373.9701	45.20534
374.1371	46.36037
374.3041	41.07712
374.4711	40.25071
374.6381	45.26893
374.8051	38.79706
374.9721	42.82011
375.1391	45.25279
375.3061	51.23044
375.473	48.34908
375.64	46.39054
375.8069	48.45372
375.9739	47.51056
376.1409	48.14278
376.3078	50.0699
376.4748	47.10301
376.6417	38.57644
376.8087	47.09734
376.9756	41.4417
377.1425	43.08703
377.3094	45.35962
377.4763	52.32827
377.6432	53.78486
377.8102	48.88906
377.9771	52.05827
378.144	54.49048
378.3109	48.09251
378.4777	48.41706
378.6446	48.5914
378.8115	49.01595
378.9784	40.53784
379.1452	43.00394
379.3121	47.30295
379.4789	44.41987
379.6458	42.63084
379.8127	43.2216
379.9795	44.81571
380.1463	48.16612
380.3131	52.26906
380.48	50.36456
380.6468	47.59589
380.8136	49.03718
380.9804	47.80299
381.1472	46.82795
381.314	49.35863
381.4808	44.38002
381.6476	45.10589
381.8144	47.53601
381.9812	50.22644
382.148	47.47351
382.3147	40.30624
382.4815	43.14212
382.6483	42.05867
382.815	38.2326
382.9818	41.98432
383.1485	42.94473
383.3153	46.4118
383.482	45.51942
383.6487	44.74218
383.8155	43.51271
383.9822	48.06806
384.1489	46.85952
384.3156	49.61855
384.4823	50.7307
384.649	55.53199
384.8157	57.0715
384.9824	53.68388
385.1491	56.1594
385.3158	51.95982
385.4825	49.63976
385.6491	55.42508
385.8158	48.91948
385.9825	50.5746
386.1491	55.79104
386.3157	55.57741
386.4824	54.89765
386.649	58.04768
386.8157	52.11969
386.9823	51.87136
387.1489	59.26644
387.3156	48.59439
387.4821	52.79977
387.6488	56.00454
387.8154	55.04701
387.982	54.41881
388.1486	47.66009
388.3152	51.88746
388.4818	49.71613
388.6483	50.29178
388.8149	53.74271
388.9815	56.39063
389.148	55.27832
389.3146	57.71314
389.4811	60.13876
389.6477	59.30189
389.8142	57.19101
389.9808	59.73246
390.1473	57.4049
390.3138	53.7417
390.4804	58.67289
390.6469	55.21386
390.8134	53.80499
390.9799	59.18393
391.1464	59.64275
391.3129	58.72733
391.4794	62.70746
391.6459	63.25237
391.8124	58.55506
391.9789	59.51089
392.1453	52.93385
392.3118	55.20234
392.4782	57.12383
392.6447	54.50103
392.8112	54.8962
392.9776	48.3511
393.144	45.0976
393.3105	43.61674
393.4769	45.24609
393.6433	47.74863
393.8098	50.35159
393.9762	52.34313
394.1426	58.23376
394.309	56.81819
394.4754	62.56513
394.6418	64.58913
394.8082	65.12708
394.9746	65.72542
395.141	63.41852
395.3073	66.12633
395.4737	64.39013
395.64	67.10531
395.8064	68.61131
395.9728	65.3681
396.1391	60.21495
396.3055	54.7878
396.4718	50.02869
396.6381	52.20605
396.8045	50.6126
396.9708	47.78439
397.1371	52.14083
397.3034	58.24459
397.4697	62.92229
397.636	63.99444
397.8023	70.75201
397.9686	72.41618
398.1349	76.93664
398.3012	73.93268
398.4675	77.45459
398.6337	77.54584
398.8	72.86443
398.9662	74.13625
399.1325	78.29798
399.2988	79.38249
399.465	76.09535
399.6313	70.3938
399.7975	77.55746
399.9637	76.81741
400.1299	81.25487
400.2961	80.07438
400.4624	78.46794
400.6286	81.7002
400.7948	80.10207
400.961	75.58502
401.1272	77.713
401.2934	78.88822
401.4595	81.30971
401.6257	89.80549
401.7919	82.23096
401.9581	75.29667
402.1242	78.94215
402.2904	85.50224
402.4565	82.68609
402.6227	84.62837
402.7888	77.47727
402.955	82.13716
403.1211	81.99577
403.2872	81.24309
403.4533	76.601
403.6194	78.96526
403.7856	84.4028
403.9517	88.10315
404.1177	84.11977
404.2838	81.58018
404.4499	76.78215
404.616	73.95421
404.7821	68.93224
404.9482	81.61658
405.1142	82.96391
405.2803	79.0012
405.4464	75.40501
405.6124	80.16586
405.7784	79.21267
405.9445	78.16764
406.1105	79.72992
406.2766	80.04137
406.4426	79.5181
406.6086	79.20566
406.7746	82.92622
406.9406	83.7945
407.1066	88.07628
407.2726	81.06576
407.4386	85.56789
407.6046	84.38785
407.7706	89.76284
407.9366	88.34706
408.1025	88.64329
408.2685	89.68889
408.4344	89.59147
408.6004	94.49509
408.7664	90.8158
408.9323	98.7461
409.0983	100.154
409.2642	100.1672
409.4301	99.77995
409.596	102.5715
409.762	93.66279
409.9279	88.65348
410.0938	85.39893
410.2597	91.42424
410.4256	95.89825
410.5915	94.63571
410.7574	96.30025
410.9232	92.97646
411.0891	95.9303
411.255	94.46692
411.4209	96.47348
411.5867	101.1936
411.7526	98.77988
411.9184	97.27307
412.0843	95.73657
412.2501	97.92059
412.4159	100.9611
412.5818	96.03674
412.7476	95.23301
412.9134	96.55378
413.0792	103.9026
413.245	91.44772
413.4108	91.82629
413.5766	98.49884
413.7424	106.0436
413.9082	108.2511
414.074	98.12591
414.2397	97.63962
414.4055	94.38478
414.5713	100.9952
414.737	106.843
414.9028	107.6415
415.0685	107.8976
415.2343	98.25112
415.4	98.54234
415.5658	98.55085
415.7315	98.92808
415.8972	104.4798
416.0629	106.9495
416.2286	105.9374
416.3943	103.7028
416.56	99.94887
416.7257	98.86697
416.8914	102.2099
417.0571	93.71835
417.2228	97.32691
417.3884	98.32053
417.5541	88.17232
417.7198	92.9478
417.8854	100.9397
418.0511	94.57586
418.2167	92.13189
418.3824	99.06355
418.548	97.39784
418.7136	96.91402
418.8792	97.06343
419.0449	103.3269
419.2105	105.5055
419.3761	106.1177
419.5417	105.9109
419.7073	103.4603
419.8729	104.335
420.0385	101.1364
420.204	97.1861
420.3696	100.2741
420.5352	107.6013
420.7007	109.3344
420.8663	111.0022
421.0319	108.4609
421.1974	112.2707
421.3629	116.9125
421.5285	112.901
421.694	102.6995
421.8595	110.6546
422.0251	118.2883
422.1906	119.6019
422.3561	111.2154
422.5216	101.6732
422.6871	96.87769
422.8526	101.1457
423.0181	108.4491
423.1835	117.4693
423.349	116.6269
423.5145	114.6936
423.68	113.7579
423.8454	110.2372
424.0109	110.2183
424.1763	114.2905
424.3418	116.9165
424.5072	124.2777
424.6726	116.9408
424.838	114.5506
425.0035	108.977
425.1689	112.1278
425.3343	112.6556
425.4997	115.6064
425.6651	114.9767
425.8305	112.814
425.9959	102.1541
426.1613	107.2536
426.3267	118.116
426.492	114.0058
426.6574	112.1699
426.8228	119.1088
426.9881	108.2168
427.1534	105.3939
427.3188	108.062
427.4841	112.1829
427.6495	114.2246
427.8148	119.8501
427.9801	113.2601
428.1454	119.4292
428.3107	125.8992
428.476	119.3729
428.6414	114.7759
428.8066	114.2452
428.9719	109.0905
429.1372	105.3016
429.3025	108.5245
429.4678	114.2352
429.633	111.4739
429.7983	98.75667
429.9636	101.6383
430.1288	98.58655
430.294	95.60982
430.4593	97.78572
430.6245	99.55797
430.7897	94.56943
430.955	95.10015
431.1202	95.21583
431.2854	105.021
431.4506	110.8577
431.6158	117.0103
431.781	130.0779
431.9462	131.4498
432.1114	123.8019
432.2766	115.0989
432.4417	109.3382
432.6069	106.2423
432.772	110.0684
432.9372	121.8395
433.1024	123.8117
433.2675	125.8558
433.4326	128.2325
433.5977	126.9616
433.7629	110.8967
433.928	110.6551
434.0931	109.4128
434.2582	112.7645
434.4233	115.3967
434.5884	123.9052
434.7535	130.8156
434.9186	130.5935
435.0837	129.1593
435.2488	122.2964
435.4138	123.5075
435.5789	129.681
435.744	128.487
435.909	133.7768
436.0741	137.646
436.2391	140.1825
436.4042	141.9977
436.5692	138.1813
436.7342	141.3944
436.8992	133.8625
437.0643	133.6306
437.2293	137.2115
437.3943	128.7775
437.5593	134.4997
437.7243	142.5161
437.8893	138.9277
438.0542	139.0773
438.2192	130.6985
438.3842	124.937
438.5491	124.0459
438.7141	132.0394
438.8791	131.0891
439.044	134.888
439.209	134.29
439.3739	137.6694
439.5388	145.5253
439.7037	145.4414
439.8687	146.1712
440.0336	143.7878
440.1985	143.0992
440.3634	127.8503
440.5283	138.5033
440.6932	136.2092
440.8581	148.1459
441.0229	151.0828
441.1878	152.1948
441.3527	148.4576
441.5175	143.9136
441.6824	141.3944
441.8472	153.0556
442.0121	149.1905
442.1769	155.6176
442.3418	151.5631
442.5066	155.983
442.6714	149.8245
442.8362	152.5066
443.001	156.7646
443.1659	156.348
443.3307	146.8574
443.4955	146.8264
443.6602	148.6267
443.825	153.6994
443.9898	152.1712
444.1546	146.3372
444.3193	150.8143
444.4841	155.0996
444.6488	154.082
444.8136	156.0205
444.9783	149.8021
445.1431	161.0457
445.3078	149.3536
445.4725	150.5475
445.6372	147.6974
445.802	145.133
445.9667	142.888
446.1314	149.2295
446.2961	154.2233
446.4608	150.306
446.6255	155.4823
446.7901	152.2552
446.9548	143.8246
447.1195	151.9732
447.2841	159.7608
447.4488	163.4759
447.6134	162.7248
447.7781	164.058
447.9427	155.6794
448.1074	154.3822
448.272	153.8818
448.4366	160.3412
448.6012	165.4742
448.7658	169.6637
448.9305	157.8467
449.095	159.225
449.2596	160.4952
449.4242	155.7177
449.5888	161.0043
449.7534	164.0647
449.9179	162.3826
450.0825	158.8661
450.2471	164.5492
450.4116	174.1117
450.5762	175.6064
450.7407	173.0036
450.9052	179.3837
451.0698	176.4069
451.2343	177.2108
451.3988	169.6029
451.5633	169.6326
451.7278	171.8627
451.8923	171.1916
452.0568	172.7048
452.2213	172.1422
452.3858	169.3727
452.5503	163.9734
452.7148	160.9205
452.8792	161.4893
453.0437	161.919
453.2081	159.7652
453.3726	160.821
453.537	162.1129
453.7015	171.233
453.8659	178.2047
454.0303	175.1698
454.1947	180.606
454.3592	176.2218
454.5236	176.8444
454.688	170.9246
454.8524	167.5291
455.0168	167.9978
455.1811	173.1975
455.3455	177.8648
455.5099	182.6702
455.6743	174.3373
455.8386	180.3053
456.003	183.286
456.1673	182.9681
456.3317	180.7874
456.496	180.5467
456.6603	182.7519
456.8246	179.0603
456.989	181.8969
457.1533	178.5431
457.3176	183.9971
457.4819	191.7812
457.6462	189.8562
457.8105	185.94
457.9748	183.4106
458.1391	187.7639
458.3033	182.1929
458.4676	173.8761
458.6319	177.3232
458.7961	181.5762
458.9604	178.4695
459.1246	185.241
459.2888	183.8578
459.4531	180.6489
459.6173	183.5927
459.7815	179.5128
459.9457	179.0874
460.11	177.084
460.2741	177.2972
460.4384	182.3669
460.6025	184.7351
460.7667	180.9416
460.9309	186.4169
461.0951	192.2973
461.2592	186.2958
461.4234	186.088
461.5876	191.7754
461.7517	189.1785
461.9159	193.4758
462.08	183.3093
462.2441	176.4006
462.4082	187.4989
462.5724	185.552
462.7365	186.4308
462.9006	186.6963
463.0647	183.936
463.2288	189.4912
463.3929	182.2968
463.557	184.7122
463.721	178.7231
463.8851	174.9212
464.0492	186.9071
464.2132	186.6294
464.3773	183.7137
464.5414	176.5396
464.7054	174.6187
464.8694	181.8634
465.0334	184.0446
465.1975	186.4097
465.3615	190.0485
465.5255	179.4055
465.6895	183.4168
465.8535	194.4499
466.0175	191.5728
466.1815	189.4688
466.3455	180.8705
466.5095	185.2694
466.6734	176.3207
466.8374	172.5549
467.0014	178.2018
467.1653	182.1856
467.3293	193.6514
467.4932	191.352
467.6571	189.9796
467.8211	186.6353
467.985	190.3812
468.1489	191.3774
468.3128	194.6842
468.4767	195.0372
468.6406	189.0039
468.8045	190.4572
468.9684	192.1323
469.1323	190.0706
469.2962	189.4646
469.46	184.2147
469.6239	193.0542
469.7878	192.1661
469.9516	192.364
470.1154	186.5275
470.2793	191.4331
470.4431	188.4995
470.607	190.4798
470.7708	184.7275
470.9346	190.4077
471.0984	189.747
471.2622	192.6233
471.426	198.6218
471.5898	195.1529
471.7536	191.8312
471.9174	204.5804
472.0811	207.4688
472.2449	205.665
472.4087	203.8791
472.5724	198.0493
472.7362	195.3247
472.8999	194.0203
473.0637	199.307
473.2274	198.5295
473.3911	191.3646
473.5548	189.8984
473.7185	194.9504
473.8822	197.2387
474.0459	193.1747
474.2096	197.3934
474.3733	201.4408
474.537	207.9171
474.7007	203.4371
474.8643	202.2983
475.028	199.4308
475.1917	204.6852
475.3553	207.9864
475.519	201.2417
475.6826	198.2461
475.8463	202.0561
476.0099	203.3511
476.1735	201.1281
476.3371	198.8293
476.5007	196.5172
476.6643	194.1979
476.8279	192.3981
476.9915	199.0132
477.1551	200.3234
477.3187	198.8736
477.4823	204.2573
477.6458	207.9084
477.8094	209.9775
477.9729	204.8199
478.1365	208.001
478.3	206.2157
478.4636	200.5038
478.6271	204.8167
478.7906	203.8386
478.9541	194.0075
479.1176	202.6993
479.2812	204.4736
479.4447	206.7942
479.6082	208.7446
479.7716	202.1836
479.9351	206.2359
480.0986	203.262
480.2621	205.1621
480.4255	204.7521
480.589	199.8333
480.7524	201.7235
480.9159	198.8473
481.0793	205.2596
481.2428	203.4441
481.4062	199.1091
481.5696	197.8086
481.733	206.4364
481.8964	207.5301
482.0598	206.5406
482.2232	205.4846
482.3866	209.6991
482.55	201.9714
482.7134	203.5342
482.8768	204.8406
483.0401	203.4405
483.2035	201.2653
483.3668	201.7792
483.5302	205.122
483.6935	205.8512
483.8568	204.9672
484.0202	197.2403
484.1835	202.4849
484.3468	198.2767
484.5101	197.4405
484.6734	203.5746
484.8367	202.5112
485	201.1968
485.1633	202.9234
485.3266	205.2368
485.4899	195.4236
485.6531	194.3815
485.8164	184.3171
485.9796	175.3792
486.1429	170.2868
486.3061	165.4161
486.4694	178.0384
486.6326	194.1356
486.7958	196.4357
486.959	201.152
487.1223	196.9433
487.2855	192.2371
487.4486	200.6327
487.6118	200.7277
487.775	198.4449
487.9382	207.6973
488.1014	208.8678
488.2646	215.731
488.4277	207.7063
488.5909	203.7654
488.754	200.1167
488.9171	198.5327
489.0803	196.9315
489.2434	196.7118
489.4066	206.3552
489.5697	215.8219
489.7328	218.0275
489.8959	216.7064
490.059	212.2141
490.2221	213.7173
490.3852	214.4878
490.5482	211.0967
490.7113	216.1461
490.8744	211.3184
491.0374	205.3915
491.2005	203.3817
491.3636	208.6107
491.5266	215.8874
491.6896	210.7441
491.8527	202.7482
492.0157	204.0057
492.1787	203.9483
492.3417	203.466
492.5047	210.6806
492.6677	215.0891
492.8307	217.8602
492.9937	219.7504
493.1567	219.8145
493.3196	216.0764
493.4826	213.2858
493.6456	204.9866
493.8085	204.6178
493.9715	210.1027
494.1344	215.0101
494.2974	213.888
494.4603	223.9394
494.6232	219.1575
494.7861	219.283
494.949	228.7372
495.1119	222.8635
495.2748	220.4802
495.4377	217.9924
495.6006	214.6186
495.7635	204.4109
495.9264	211.3535
496.0892	211.5767
496.2521	212.4757
496.4149	217.3674
496.5778	220.133
496.7407	217.0854
496.9035	216.938
497.0663	224.3419
497.2291	223.0798
497.3919	228.3627
497.5547	231.2574
497.7176	218.4047
497.8804	217.2163
498.0432	217.7646
498.2059	211.1948
498.3687	207.556
498.5315	215.6367
498.6942	211.5483
498.857	217.5199
499.0198	221.2859
499.1825	219.7252
499.3452	217.6691
499.508	218.7468
499.6707	221.7254
499.8334	218.8135
499.9962	225.2132
500.1589	223.6243
500.3216	214.6919
500.4843	212.3441
500.6469	216.1445
500.8096	207.8472
500.9723	217.8409
501.135	218.237
501.2976	204.7034
501.4603	202.4432
501.623	213.1166
501.7856	213.7337
501.9482	213.3677
502.1109	214.6902
502.2735	216.7575
502.4361	226.2981
502.5987	215.2139
502.7614	213.7115
502.924	214.775
503.0865	218.2867
503.2491	227.265
503.4117	224.2405
503.5743	218.6436
503.7368	217.1569
503.8994	216.4343
504.062	210.9758
504.2245	209.7334
504.3871	216.0784
504.5496	226.6448
504.7121	221.5762
504.8746	216.0926
505.0372	214.2743
505.1997	211.3378
505.3622	226.1731
505.5247	232.6623
505.6872	233.4916
505.8497	228.8608
506.0121	228.2606
506.1746	231.6361
506.3371	234.4503
506.4995	231.0534
506.662	229.9573
506.8244	226.4114
506.9869	226.5336
507.1493	230.9226
507.3117	229.2209
507.4742	226.8228
507.6366	226.3305
507.799	228.7108
507.9614	228.6611
508.1238	218.7009
508.2862	220.961
508.4485	223.7021
508.6109	223.2857
508.7733	226.5448
508.9357	233.0193
509.098	233.0922
509.2604	230.3918
509.4227	232.1792
509.5851	237.9901
509.7474	223.7993
509.9097	220.6255
510.072	233.4191
510.2343	237.2311
510.3966	236.1005
510.5589	233.2618
510.7212	231.6758
510.8835	231.9471
511.0458	234.0058
511.2081	231.5239
511.3703	229.7413
511.5326	228.0111
511.6949	232.9341
511.8571	243.1899
512.0193	239.9795
512.1816	228.447
512.3438	228.0706
512.506	222.6616
512.6682	226.7664
512.8304	224.7622
512.9926	226.3689
513.1548	220.7793
513.317	222.4675
513.4792	232.7843
513.6414	237.8139
513.8035	227.0755
513.9657	222.4422
514.1279	224.2903
514.29	229.8094
514.4521	237.2069
514.6143	223.6818
514.7764	232.8055
514.9385	228.2755
515.1006	225.8776
515.2628	231.2681
515.4249	233.649
515.587	243.1725
515.7491	233.008
515.9111	232.9772
516.0732	233.8595
516.2353	227.0119
516.3973	225.2438
516.5594	223.1041
516.7214	207.7858
516.8835	205.7668
517.0455	203.175
517.2076	201.7319
517.3696	211.0992
517.5316	217.6981
517.6937	227.9846
517.8557	229.4836
518.0176	227.0385
518.1796	220.6362
518.3416	203.2502
518.5036	205.9595
518.6656	215.2601
518.8275	215.8938
518.9895	224.7578
519.1514	221.4634
519.3134	214.5524
519.4753	223.0732
519.6373	225.5831
519.7992	223.101
519.9611	224.0583
520.123	233.8
520.2849	225.4281
520.4468	227.88
520.6087	220.337
520.7706	217.8004
520.9325	220.6631
521.0944	227.2227
521.2562	229.5571
521.4181	235.2387
521.58	227.7053
521.7418	229.4023
521.9036	228.8416
522.0655	236.6208
522.2273	238.9312
522.3891	233.8273
522.551	230.282
522.7128	223.3585
522.8746	222.2828
523.0363	224.2584
523.1981	227.8754
523.3599	223.0099
523.5217	232.3543
523.6835	236.9524
523.8452	228.8553
524.007	234.9186
524.1687	237.6788
524.3304	235.4183
524.4922	241.2525
524.6539	242.8608
524.8157	237.9126
524.9774	235.5881
525.1391	234.8165
525.3008	234.3362
525.4625	233.6186
525.6241	236.5147
525.7858	245.7395
525.9475	246.4032
526.1092	233.2551
526.2709	231.697
526.4325	223.5859
526.5942	225.2247
526.7558	223.6705
526.9174	218.7163
527.079	212.3155
527.2407	225.8771
527.4023	235.8727
527.5639	238.4291
527.7255	233.0797
527.8871	234.0605
528.0487	239.6712
528.2103	231.819
528.3718	234.1005
528.5334	238.9185
528.695	246.2791
528.8565	238.3486
529.0181	247.7249
529.1796	246.0426
529.3412	237.4236
529.5027	236.4393
529.6642	237.3852
529.8257	244.2333
529.9872	232.6207
530.1487	236.8571
530.3102	246.2766
530.4717	243.667
530.6332	242.665
530.7947	245.9667
530.9562	243.8917
531.1176	245.1202
531.2791	245.0219
531.4405	240.9455
531.6019	242.3778
531.7634	250.8835
531.9248	246.9289
532.0862	243.7106
532.2477	239.1734
532.4091	240.0004
532.5704	237.8052
532.7319	227.7623
532.8932	227.1321
533.0546	236.2217
533.216	244.9265
533.3774	242.0248
533.5388	237.1391
533.7001	239.5963
533.8615	237.3003
534.0228	238.9118
534.1841	236.9985
534.3455	236.609
534.5068	244.7351
534.6681	241.3641
534.8293	240.3806
534.9907	241.3724
535.152	236.273
535.3132	245.6248
535.4745	245.1011
535.6358	248.7088
535.7971	245.7843
535.9583	251.9436
536.1196	245.9442
536.2808	244.7575
536.4421	242.1979
536.6033	247.1749
536.7645	242.0777
536.9258	233.0782
537.087	226.537
537.2482	240.011
537.4094	244.0323
537.5706	251.1597
537.7318	244.3262
537.8929	243.6487
538.0541	247.4159
538.2153	240.6685
538.3764	242.2487
538.5376	245.038
538.6987	242.4081
538.8599	240.4423
539.021	243.865
539.1821	241.0599
539.3432	238.7557
539.5043	236.9191
539.6655	238.1495
539.8265	236.0278
539.9876	232.8361
540.1487	233.4008
540.3098	232.0807
540.4708	231.7916
540.6319	226.0527
540.793	231.5618
540.954	236.2209
541.1151	238.108
541.2761	231.1332
541.4371	234.4642
541.5981	240.0636
541.7592	241.8862
541.9202	242.9385
542.0812	246.8836
542.2422	237.8201
542.4031	234.3237
542.5641	234.9956
542.7251	240.1578
542.886	230.0318
543.0471	229.5536
543.208	232.2078
543.369	238.6505
543.5298	242.0668
543.6908	234.5612
543.8517	239.4706
544.0126	245.8605
544.1736	242.3626
544.3345	236.6864
544.4954	234.7477
544.6563	234.9424
544.8171	238.6538
544.978	235.3871
545.1389	240.1585
545.2997	245.2418
545.4606	243.4802
545.6215	236.9903
545.7823	243.7384
545.9432	250.8981
546.104	245.8888
546.2648	237.6113
546.4256	236.5324
546.5864	241.1924
546.7473	242.2406
546.908	242.3713
547.0688	239.4771
547.2296	236.9389
547.3904	238.6843
547.5511	236.0802
547.7119	237.1557
547.8727	239.1658
548.0334	235.5912
548.1942	231.8495
548.3549	237.8069
548.5156	247.3072
548.6763	248.7655
548.837	245.5261
548.9977	248.6213
549.1584	241.0264
549.3192	243.0037
549.4798	245.5318
549.6405	251.7095
549.8011	243.915
549.9619	248.5202
550.1225	244.6125
550.2831	242.8973
550.4438	242.9663
550.6044	236.5449
550.765	241.4437
550.9257	246.4324
551.0863	243.5055
551.2469	247.2866
551.4075	246.2791
551.5681	243.6802
551.7287	244.9853
551.8893	254.0022
552.0498	252.7217
552.2104	253.4973
552.371	249.8901
552.5315	240.6453
552.6921	243.0675
552.8526	245.3303
553.0131	247.1882
553.1736	249.3373
553.3342	249.0308
553.4947	243.5307
553.6552	245.0699
553.8157	248.6353
553.9762	248.4102
554.1367	251.4839
554.2971	256.7484
554.4576	249.6356
554.618	248.5281
554.7785	248.3425
554.939	243.1291
555.0994	252.7061
555.2598	255.8678
555.4203	252.3387
555.5807	246.0113
555.7411	245.4761
555.9015	245.5184
556.0619	249.7758
556.2223	243.1682
556.3827	242.3354
556.5431	247.6426
556.7034	251.8085
556.8638	249.3702
557.0242	247.9016
557.1845	246.8633
557.3448	236.1883
557.5052	239.0034
557.6655	242.9985
557.8259	251.2793
557.9861	251.2625
558.1465	255.96
558.3068	250.2566
558.467	239.2154
558.6274	234.9962
558.7877	236.4545
558.9479	243.8981
559.1082	251.385
559.2684	252.3901
559.4287	243.4164
559.5889	241.3125
559.7491	244.0195
559.9094	238.0119
560.0696	239.7815
560.2299	240.761
560.3901	246.9053
560.5502	252.7294
560.7104	252.7668
560.8707	251.5358
561.0308	251.5865
561.191	249.1229
561.3511	248.9115
561.5114	240.748
561.6714	242.1906
561.8316	243.2663
561.9918	245.2279
562.1519	248.3896
562.312	253.6484
562.4722	252.5641
562.6323	251.9203
562.7924	246.9704
562.9525	255.4239
563.1125	251.4797
563.2726	253.0461
563.4327	250.0482
563.5928	250.189
563.7528	250.1594
563.9129	243.5925
564.0729	241.3878
564.233	245.1967
564.393	252.915
564.553	252.517
564.7131	245.9612
564.873	251.629
565.0331	243.8882
565.1931	251.3464
565.353	247.8704
565.5131	252.0383
565.673	246.5012
565.833	239.9071
565.9929	239.4858
566.1529	244.262
566.3129	249.2439
566.4728	254.7286
566.6328	255.0727
566.7927	251.5961
566.9526	243.9637
567.1125	244.368
567.2724	254.6033
567.4323	256.5176
567.5922	254.0726
567.7521	251.6094
567.9119	252.4419
568.0718	250.7424
568.2317	251.7466
568.3915	253.8591
568.5514	246.0446
568.7112	243.8578
568.871	253.5178
569.0309	252.9544
569.1907	252.3367
569.3505	255.5442
569.5103	250.6505
569.6701	254.6653
569.8299	255.0174
569.9897	258.7816
570.1495	251.7381
570.3092	246.5483
570.469	255.8955
570.6287	251.2793
570.7885	247.1767
570.9482	249.6299
571.108	241.2034
571.2677	242.3337
571.4274	248.2487
571.5871	251.5668
571.7468	255.9617
571.9066	260.5953
572.0662	254.0845
572.2259	256.4279
572.3856	266.2121
572.5452	266.4778
572.7049	267.1008
572.8646	261.8362
573.0242	266.5212
573.1838	266.4715
573.3435	257.102
573.5031	266.6762
573.6627	274.1661
573.8223	268.1541
573.9819	261.584
574.1415	264.3362
574.3011	263.0421
574.4607	272.8259
574.6203	274.1956
574.7798	281.1568
574.9394	268.0133
575.099	269.3638
575.2585	270.0655
575.418	264.444
575.5776	262.2339
575.7371	273.9807
575.8966	272.8179
576.0562	269.6576
576.2156	260.9295
576.3751	262.8478
576.5346	260.7253
576.6941	267.0081
576.8536	264.1283
577.0131	271.0618
577.1725	268.7674
577.332	267.4079
577.4914	261.5124
577.6508	267.8036
577.8103	270.6099
577.9697	264.7397
578.1291	261.2258
578.2885	261.9371
578.4479	268.1972
578.6073	264.0232
578.7667	266.86
578.9261	261.01
579.0854	263.5513
579.2448	270.11
579.4042	266.8834
579.5635	271.8752
579.7229	266.4874
579.8822	269.7667
580.0416	264.9445
580.2009	270.3727
580.3602	278.0544
580.5195	270.7877
580.6788	267.6143
580.8381	268.6744
580.9974	274.4378
581.1566	271.0967
581.3159	265.3319
581.4752	264.299
581.6345	267.5246
581.7937	270.6994
581.9529	269.9764
582.1122	275.6481
582.2714	276.1264
582.4306	287.3375
582.5898	276.4539
582.749	271.1107
582.9082	276.0406
583.0674	278.5735
583.2266	276.6554
583.3857	275.1495
583.5449	280.1146
583.7041	277.1897
583.8633	282.8444
584.0224	279.3809
584.1815	282.8514
584.3407	274.1424
584.4998	279.6828
584.6589	280.8789
584.818	277.332
584.9771	279.6634
585.1362	281.8825
585.2953	278.9131
585.4544	273.7077
585.6135	273.3565
585.7725	278.2448
585.9316	274.1659
586.0906	278.2047
586.2497	272.778
586.4087	274.9267
586.5677	284.7276
586.7267	283.419
586.8858	277.4383
587.0448	279.219
587.2038	284.436
587.3628	281.5246
587.5218	281.6968
587.6807	284.0493
587.8397	287.8101
587.9987	287.5565
588.1577	278.2023
588.3166	267.6399
588.4755	271.1599
588.6345	271.4994
588.7934	275.487
588.9523	270.4067
589.1112	268.3009
589.2701	264.0575
589.429	260.4933
589.5879	258.6811
589.7468	260.6596
589.9056	262.1302
590.0645	269.2331
590.2234	277.8407
590.3822	278.0837
590.5411	285.1027
590.6999	283.5845
590.8588	283.1134
591.0176	287.2464
591.1764	284.4329
591.3352	278.9254
591.494	279.4836
591.6528	284.1627
591.8116	287.5285
591.9703	278.8281
592.1291	277.5937
592.2878	279.6644
592.4467	283.6581
592.6053	292.3055
592.7641	285.3271
592.9229	279.384
593.0816	288.5463
593.2403	285.6954
593.399	280.4477
593.5577	277.7613
593.7164	286.3445
593.8751	290.7701
594.0338	291.0655
594.1924	286.9158
594.3511	283.1787
594.5098	282.078
594.6684	283.8297
594.8271	288.292
594.9857	284.7419
595.1443	284.8657
595.303	284.7863
595.4615	288.9512
595.6202	286.8168
595.7787	287.6064
595.9374	286.3435
596.0959	284.8206
596.2545	286.9187
596.4131	289.709
596.5717	287.4023
596.7302	294.812
596.8887	287.197
597.0473	290.2557
597.2058	295.8625
597.3644	293.5529
597.5229	291.2778
597.6814	290.4859
597.8399	292.4821
597.9984	295.9538
598.1569	297.412
598.3154	296.868
598.4738	290.7224
598.6323	289.6311
598.7908	291.2695
598.9492	301.8285
599.1076	297.8173
599.2661	295.2548
599.4245	298.4036
599.5829	299.4102
599.7413	291.65
599.8997	299.6197
600.0581	301.675
600.2165	302.3051
600.3749	298.6329
600.5333	288.9386
600.6917	290.287
600.85	301.0446
601.0084	293.5294
601.1667	298.8134
601.325	300.5854
601.4833	297.5196
601.6417	301.7082
601.8	301.9905
601.9583	296.4706
602.1166	299.9574
602.2749	296.0396
602.4332	292.1071
602.5914	296.3978
602.7498	299.9397
602.908	301.6413
603.0662	304.0283
603.2245	309.4663
603.3828	301.0208
603.541	310.937
603.6992	309.8999
603.8574	300.6482
604.0156	304.5183
604.1738	302.2263
604.332	309.1922
604.4902	304.1096
604.6484	313.1006
604.8065	312.1964
604.9647	296.8015
605.1229	306.9633
605.281	307.6518
605.4391	306.5499
605.5973	305.6596
605.7554	296.6105
605.9135	298.1709
606.0717	309.058
606.2297	305.5305
606.3878	295.7463
606.5459	300.37
606.704	298.9884
606.8621	298.9274
607.0201	306.9773
607.1782	309.7989
607.3362	301.346
607.4943	302.6544
607.6523	306.1896
607.8104	301.3628
607.9684	307.7581
608.1264	303.4619
608.2844	301.0027
608.4424	307.8014
608.6003	302.9162
608.7584	310.9168
608.9163	303.7444
609.0743	301.2459
609.2322	299.4948
609.3902	298.0753
609.5482	302.112
609.7061	305.1693
609.864	303.8691
610.0219	298.851
610.1798	296.8764
610.3377	293.8139
610.4956	290.8946
610.6535	303.0737
610.8114	298.3182
610.9693	307.3439
611.1271	313.4129
611.285	310.2964
611.4429	307.14
611.6007	301.2172
611.7585	309.0222
611.9164	304.4345
612.0742	305.3233
612.232	307.4865
612.3898	298.293
612.5476	303.1276
612.7054	306.0248
612.8632	303.118
613.0209	302.2989
613.1787	305.3055
613.3365	301.5646
613.4942	301.5601
613.652	294.4705
613.8097	284.8375
613.9674	290.2108
614.1252	295.2537
614.2829	292.0656
614.4406	296.6842
614.5983	300.8582
614.756	299.5722
614.9136	305.4464
615.0714	302.3932
615.229	300.6655
615.3867	297.7213
615.5443	297.4611
615.702	298.7953
615.8596	296.549
616.0172	295.3967
616.1748	282.8027
616.3325	279.5085
616.4901	284.3039
616.6476	288.2164
616.8052	289.6953
616.9628	292.3099
617.1204	298.0966
617.278	290.7637
617.4355	294.6742
617.5931	294.7557
617.7506	296.6112
617.9081	303.7418
618.0657	296.5295
618.2232	294.4653
618.3807	291.5714
618.5382	295.0994
618.6957	290.0722
618.8532	292.4377
619.0107	295.1513
619.1682	289.1537
619.3256	295.5004
619.4831	299.6099
619.6406	299.9132
619.798	298.4099
619.9554	296.0627
620.1129	296.9815
620.2703	304.1524
620.4277	292.8206
620.5851	291.5761
620.7425	297.3566
620.8998	300.2852
621.0573	294.3838
621.2146	287.0264
621.372	283.915
621.5294	285.5891
621.6867	287.6027
621.8441	293.0341
622.0013	296.8651
622.1587	294.8197
622.316	295.8864
622.4733	293.8824
622.6306	289.0528
622.7879	286.632
622.9452	285.1476
623.1025	285.9413
623.2598	286.5791
623.4171	288.5641
623.5743	292.6138
623.7316	293.8029
623.8888	286.695
624.046	292.9078
624.2032	284.6729
624.3605	281.3162
624.5176	285.1917
624.6749	286.7952
624.8321	290.8516
624.9893	295.1701
625.1464	289.7231
625.3036	285.3668
625.4608	287.5514
625.6179	280.3098
625.7751	280.5219
625.9322	282.4796
626.0894	291.8289
626.2465	299.1794
626.4036	295.5555
626.5607	289.335
626.7178	297.829
626.8749	293.9035
627.032	284.4885
627.189	285.7385
627.3461	295.1391
627.5032	289.0898
627.6602	286.5162
627.8173	284.5313
627.9743	271.4753
628.1313	271.7715
628.2884	276.7336
628.4454	284.2874
628.6024	290.0479
628.7594	284.8767
628.9164	290.1073
629.0734	288.6313
629.2303	291.4442
629.3873	282.2099
629.5443	283.0404
629.7012	288.188
629.8582	280.8304
630.0151	276.76
630.172	281.3014
630.3289	285.5566
630.4858	286.8379
630.6428	289.7676
630.7996	283.6886
630.9565	282.7953
631.1134	280.8621
631.2703	289.5407
631.4272	290.749
631.584	277.4918
631.7408	273.5491
631.8977	272.9381
632.0546	280.9994
632.2114	283.0585
632.3682	280.3445
632.525	288.7967
632.6818	285.9792
632.8386	283.4142
632.9954	284.3242
633.1522	283.1071
633.3089	285.5405
633.4657	283.4847
633.6224	284.8873
633.7792	283.4171
633.9359	280.7274
634.0927	281.6927
634.2494	284.4247
634.4061	283.4674
634.5628	284.1366
634.7195	279.1429
634.8762	277.2942
635.0329	286.452
635.1895	282.1354
635.3462	284.8304
635.5029	286.594
635.6595	280.2476
635.8162	280.2971
635.9728	285.8074
636.1295	285.2563
636.2861	283.8607
636.4427	282.787
636.5992	280.9395
636.7559	283.1984
636.9124	280.7975
637.069	278.8748
637.2256	278.2042
637.3821	275.5316
637.5387	273.1048
637.6953	284.147
637.8518	284.3321
638.0084	282.1346
638.1649	277.3114
638.3214	276.6324
638.4779	280.331
638.6344	278.3264
638.7909	283.8062
638.9474	288.0963
639.1038	280.0546
639.2603	279.2527
639.4167	281.0179
639.5732	286.9163
639.7297	278.1279
639.8861	272.7654
640.0425	274.132
640.199	278.4759
640.3553	271.405
640.5118	275.47
640.6682	269.2572
640.8245	271.1065
640.981	272.1462
641.1373	270.7153
641.2936	274.3007
641.45	270.6492
641.6064	274.5605
641.7627	276.6917
641.9191	265.9992
642.0754	257.5822
642.2317	265.9449
642.388	271.1317
642.5443	269.9193
642.7006	273.2582
642.8569	277.4332
643.0131	280.1154
643.1694	268.6669
643.3257	272.706
643.4819	272.3633
643.6382	264.69
643.7944	258.7816
643.9506	262.8651
644.1069	273.5795
644.2631	275.8389
644.4193	267.711
644.5754	271.9069
644.7316	277.1267
644.8878	268.0146
645.044	259.9738
645.2002	263.6086
645.3563	269.7444
645.5125	262.7711
645.6686	269.6918
645.8248	270.5751
645.9809	264.1183
646.137	264.8529
646.2931	263.4034
646.4492	263.3716
646.6053	265.4309
646.7614	261.2164
646.9174	264.5156
647.0735	260.4885
647.2296	254.6726
647.3856	258.7382
647.5417	261.8177
647.6977	266.3669
647.8537	260.7201
648.0098	263.4685
648.1658	264.2261
648.3218	258.4603
648.4777	264.5736
648.6337	261.5945
648.7897	266.1422
648.9457	263.8374
649.1016	257.6606
649.2576	245.9478
649.4135	245.7314
649.5695	255.479
649.7254	249.9502
649.8813	244.5352
650.0372	251.0101
650.1932	260.9965
650.3491	264.8187
650.5049	259.0863
650.6608	257.0341
650.8167	261.7936
650.9725	259.5109
651.1284	259.5069
651.2842	263.5107
651.4401	255.3194
651.5959	248.164
651.7518	247.9341
651.9076	249.9442
652.0634	255.8544
652.2192	252.7876
652.3749	256.5002
652.5308	258.4702
652.6865	262.6026
652.8423	257.5918
652.998	257.5597
653.1538	259.7654
653.3096	258.5572
653.4653	254.7248
653.621	258.1805
653.7767	262.3135
653.9324	256.7935
654.0881	253.6553
654.2438	249.5077
654.3995	253.0317
654.5552	249.8114
654.7109	251.0034
654.8665	249.6185
655.0222	258.1177
655.1778	252.3839
655.3334	247.9538
655.4891	251.7913
655.6447	252.9601
655.8003	245.1956
655.9559	229.4919
656.1115	224.3093
656.2671	216.2233
656.4227	216.8128
656.5782	223.5476
656.7338	230.8313
656.8893	238.162
657.0449	246.1346
657.2004	239.5787
657.356	241.5838
657.5115	241.5411
657.667	244.4384
657.8225	250.348
657.978	249.6439
658.1335	252.1244
658.289	253.7257
658.4445	248.8185
658.5999	250.7219
658.7554	253.1122
658.9108	248.0759
659.0663	247.4815
659.2217	248.0123
659.3771	250.3144
659.5325	248.6126
659.6879	245.6977
659.8433	247.2264
659.9987	247.0521
660.1541	248.8056
660.3095	247.3868
660.4648	242.6048
660.6202	249.825
660.7756	255.3225
660.9309	252.8111
661.0862	251.2016
661.2416	246.955
661.3969	258.4911
661.5522	257.8356
661.7075	250.3768
661.8628	252.1262
662.0181	260.2463
662.1733	255.6057
662.3286	247.6938
662.4839	244.0384
662.6391	255.0195
662.7944	261.066
662.9496	255.6315
663.1048	240.7895
663.26	240.9929
663.4152	246.5885
663.5704	246.8999
663.7256	251.9004
663.8808	253.4485
664.036	257.818
664.1912	245.9674
664.3463	241.4549
664.5015	245.7614
664.6566	250.6622
664.8118	251.4311
664.9669	255.7914
665.122	248.7486
665.2771	246.0403
665.4322	247.4379
665.5873	254.049
665.7424	253.8438
665.8975	250.0873
666.0526	249.4507
666.2076	242.8606
666.3627	251.4547
666.5177	244.2496
666.6727	243.7224
666.8278	243.5424
666.9828	251.366
667.1378	244.8127
667.2928	249.8782
667.4478	249.1701
667.6028	251.655
667.7578	247.0353
667.9127	244.9767
668.0677	243.5258
668.2226	240.8985
668.3776	243.7363
668.5325	246.8652
668.6874	244.1686
668.8423	241.8339
668.9973	238.6239
669.1522	240.4377
669.3071	248.691
669.4619	248.1679
669.6168	246.73
669.7717	244.3368
669.9265	242.2059
670.0814	237.8186
670.2362	237.8937
670.3911	246.4127
670.5459	249.2605
670.7007	244.9238
670.8555	241.4458
671.0103	244.2707
671.1651	242.3554
671.3199	242.1293
671.4747	232.6237
671.6295	236.9605
671.7842	246.4413
671.939	237.7952
672.0937	240.3478
672.2484	239.4339
672.4031	233.9184
672.5579	237.6844
672.7126	236.6344
672.8673	239.5701
673.022	240.3486
673.1767	235.9315
673.3314	236.5696
673.486	240.3697
673.6407	242.526
673.7953	237.8348
673.95	240.3321
674.1046	237.4078
674.2592	238.7808
674.4138	237.451
674.5684	229.9924
674.723	238.7677
674.8776	231.9948
675.0322	232.6023
675.1868	229.9034
675.3414	229.9523
675.4959	228.3392
675.6505	236.7562
675.805	230.3849
675.9595	231.8319
676.1141	234.9317
676.2686	233.6608
676.4231	234.8205
676.5776	233.2494
676.7321	234.2841
676.8866	237.5021
677.041	233.8098
677.1955	233.6846
677.35	230.3739
677.5044	231.2866
677.6589	230.6631
677.8133	231.857
677.9677	224.7238
678.1221	233.4286
678.2766	235.0766
678.4309	232.9206
678.5853	232.8484
678.7397	232.8106
678.8941	229.7358
679.0485	231.4329
679.2028	230.9033
679.3571	226.5336
679.5115	223.6935
679.6658	228.3484
679.8201	230.431
679.9744	228.4929
680.1288	226.6137
680.2831	224.0023
680.4373	224.4594
680.5916	223.8091
680.7459	218.6469
680.9001	226.5634
681.0544	222.3713
681.2087	219.7321
681.3629	223.8237
681.5171	224.6309
681.6713	219.5389
681.8256	227.5122
681.9797	229.0353
682.134	224.104
682.2881	227.8986
682.4423	226.1546
682.5965	227.0631
682.7507	224.8747
682.9048	219.9854
683.059	216.222
683.2131	215.2771
683.3672	212.5913
683.5213	215.2427
683.6754	216.9784
683.8295	214.5641
683.9836	211.4698
684.1377	214.3321
684.2918	215.7101
684.4459	221.2118
684.5999	214.6375
684.754	214.3323
684.908	216.3008
685.062	213.9589
685.2161	212.9399
685.3701	209.82
685.5241	207.4529
685.6781	214.4998
685.8321	213.7152
685.9861	201.3435
686.14	207.5152
686.294	212.4013
686.4479	213.0104
686.6019	203.1308
686.7559	189.3578
686.9098	182.6012
687.0637	178.5252
687.2176	173.1156
687.3715	177.7362
687.5254	186.8147
687.6793	188.7617
687.8332	189.9923
687.9871	197.6522
688.1409	201.0775
688.2947	193.4098
688.4486	199.8248
688.6024	198.597
688.7563	200.1225
688.9101	199.9425
689.0639	192.3879
689.2177	194.5239
689.3715	196.8826
689.5253	194.1213
689.6791	191.2641
689.8328	194.1089
689.9866	196.6305
690.1403	199.5653
690.2941	200.4156
690.4478	197.6325
690.6015	199.3253
690.7552	197.6683
690.9089	204.1986
691.0626	198.2
691.2164	201.7773
691.37	196.4665
691.5237	190.9515
691.6774	199.0242
691.831	202.8808
691.9847	200.3712
692.1383	198.5824
692.2919	206.0515
692.4456	208.5279
692.5992	210.073
692.7527	197.6319
692.9064	197.4616
693.0599	197.6908
693.2136	203.1328
693.3671	200.8611
693.5207	201.6434
693.6742	196.7309
693.8278	196.8873
693.9813	198.0858
694.1348	184.7061
694.2883	190.4838
694.4418	192.0049
694.5953	197.5371
694.7488	202.0771
694.9023	193.9349
695.0558	188.9691
695.2093	197.0477
695.3627	188.9001
695.5162	192.6007
695.6696	192.1736
695.8231	194.6665
695.9764	195.8507
696.1299	189.8443
696.2833	197.5025
696.4367	204.9176
696.5901	205.5446
696.7435	201.1039
696.8968	197.0034
697.0502	197.3105
697.2036	203.0465
697.3569	205.6587
697.5102	199.1282
697.6635	196.7349
697.8168	192.9013
697.9702	191.1507
698.1235	195.9564
698.2768	198.7602
698.4301	198.1482
698.5833	199.2152
698.7366	196.1864
698.8898	191.1132
699.0431	193.8062
699.1964	189.513
699.3495	188.0103
699.5028	196.9433
699.656	197.982
699.8092	201.1793
699.9624	199.3433
700.1156	189.27
700.2688	186.9334
700.4219	193.3795
700.5751	190.9332
700.7283	188.7657
700.8814	192.4735
701.0345	195.8682
701.1877	202.0865
701.3408	193.0317
701.4939	192.0143
701.647	188.2776
701.8001	188.1304
701.9532	188.8386
702.1063	188.6485
702.2593	186.8316
702.4124	189.3464
702.5654	186.6831
702.7184	188.9852
702.8715	188.6747
703.0245	183.4061
703.1776	192.8943
703.3305	199.9636
703.4835	194.0226
703.6365	196.7026
703.7895	191.1864
703.9424	195.3195
704.0954	193.8787
704.2484	197.8485
704.4013	194.5534
704.5543	191.5165
704.7072	192.9592
704.8601	195.1445
705.013	200.8161
705.1659	192.5946
705.3188	187.1818
705.4717	193.6284
705.6246	189.5473
705.7774	192.5903
705.9303	190.0626
706.0831	190.6711
706.236	195.1318
706.3888	193.4299
706.5416	191.7071
706.6944	192.7371
706.8472	197.2173
707	197.6255
707.1528	193.7571
707.3056	191.4435
707.4583	196.7037
707.6111	197.3669
707.7639	198.2519
707.9166	190.5383
708.0693	187.5582
708.222	197.4403
708.3748	200.1321
708.5275	196.0058
708.6802	191.192
708.8328	193.4037
708.9855	192.8882
709.1382	191.0463
709.2909	191.8211
709.4435	193.69
709.5962	186.0704
709.7488	187.9306
709.9014	192.5808
710.054	193.2629
710.2067	186.1332
710.3593	190.9716
710.5118	199.5245
710.6644	194.2165
710.817	184.0207
710.9695	190.0547
711.1221	189.657
711.2747	188.9518
711.4272	185.0685
711.5797	191.5126
711.7322	192.4079
711.8848	184.2381
712.0373	186.2906
712.1898	196.5348
712.3422	189.4358
712.4948	182.5509
712.6472	183.3073
712.7996	189.2155
712.9521	188.8874
713.1046	186.8714
713.257	186.471
713.4094	188.8205
713.5618	185.8125
713.7142	185.6978
713.8666	184.4805
714.019	188.9742
714.1714	187.9942
714.3237	184.9415
714.4761	185.5313
714.6285	179.7629
714.7808	177.9332
714.9331	180.8987
715.0854	182.1789
715.2378	190.436
715.3901	191.6884
715.5424	185.8987
715.6947	184.9449
715.8469	181.7497
715.9992	175.478
716.1515	172.2229
716.3037	175.0762
716.456	172.972
716.6082	177.6399
716.7604	175.6633
716.9127	168.0936
717.0649	173.1681
717.2171	169.7626
717.3693	166.864
717.5214	165.4032
717.6736	163.5712
717.8258	162.5476
717.978	166.4489
718.1301	163.4565
718.2822	163.7256
718.4344	166.3454
718.5865	164.1153
718.7386	157.2458
718.8907	159.9405
719.0428	161.5092
719.1949	162.0926
719.3469	155.765
719.499	154.2596
719.6511	155.5928
719.8031	161.7457
719.9551	158.4029
720.1072	155.4147
720.2592	154.7864
720.4112	159.3834
720.5632	160.8544
720.7152	158.8409
720.8672	159.6674
721.0192	168.1242
721.1711	173.4872
721.3231	171.638
721.475	173.5448
721.627	170.8787
721.7789	170.7374
721.9308	172.1976
722.0828	174.8803
722.2347	175.367
722.3866	174.3244
722.5385	173.5281
722.6903	171.5121
722.8422	175.2976
722.9941	178.368
723.1459	166.6356
723.2977	161.5861
723.4496	161.044
723.6014	158.8855
723.7532	162.7576
723.905	158.3237
724.0568	153.7581
724.2086	157.9031
724.3604	154.5335
724.5121	156.9618
724.6639	163.1805
724.8157	159.1753
724.9674	164.3752
725.1191	158.4785
725.2709	155.0952
725.4226	156.9561
725.5743	157.7562
725.726	162.4883
725.8777	161.7661
726.0294	157.8536
726.181	158.8875
726.3327	156.5141
726.4844	152.9714
726.636	153.7576
726.7877	159.0955
726.9393	164.6563
727.0909	162.0739
727.2425	163.8459
727.3941	163.8058
727.5457	153.6686
727.6973	148.0013
727.8488	153.0397
728.0004	157.8709
728.1519	158.5782
728.3035	165.6082
728.455	166.9838
728.6066	168.2401
728.7581	166.1089
728.9095	154.4143
729.0611	150.5761
729.2126	156.0562
729.364	154.3619
729.5155	153.0361
729.667	152.8391
729.8184	159.0716
729.9698	162.3247
730.1213	160.9603
730.2727	156.9606
730.4241	157.4497
730.5756	157.5617
730.7269	158.7861
730.8784	161.127
731.0297	154.6364
731.1811	156.1384
731.3325	153.2019
731.4838	154.4173
731.6351	158.1845
731.7865	155.6381
731.9378	161.5864
732.0891	161.3663
732.2404	164.2234
732.3917	164.0464
732.543	163.4328
732.6943	161.308
732.8456	161.7007
732.9968	166.3126
733.1481	158.6282
733.2993	166.7007
733.4506	169.3638
733.6018	168.9209
733.753	168.6805
733.9042	167.8828
734.0554	168.6998
734.2066	163.9823
734.3578	164.3487
734.509	163.2334
734.6602	160.8317
734.8113	162.3257
734.9624	167.2943
735.1136	157.3934
735.2647	163.1408
735.4158	160.7152
735.5669	163.434
735.718	160.3237
735.8691	156.2718
736.0201	162.1291
736.1713	161.55
736.3223	159.8712
736.4733	156.7517
736.6244	157.005
736.7755	159.4964
736.9265	154.1732
737.0775	156.2804
737.2285	159.6236
737.3795	162.3642
737.5305	168.7743
737.6815	167.8743
737.8324	165.9498
737.9834	163.935
738.1343	163.3938
738.2853	157.0166
738.4362	158.2426
738.5871	158.9268
738.738	152.4033
738.8889	156.4379
739.0399	155.2433
739.1907	153.054
739.3416	155.5307
739.4925	158.6101
739.6433	158.4284
739.7942	153.691
739.945	156.5413
740.0958	158.9737
740.2467	155.4772
740.3975	155.5373
740.5483	164.2547
740.6991	160.3612
740.8499	156.1706
741.0007	160.1009
741.1514	153.8488
741.3022	156.2733
741.4529	155.0046
741.6036	157.7076
741.7544	152.9233
741.9051	145.2048
742.0558	156.2111
742.2065	154.3281
742.3572	153.3427
742.5079	157.61
742.6586	158.988
742.8093	157.2456
742.9599	160.0339
743.1105	158.0714
743.2612	157.131
743.4118	150.4758
743.5624	159.0946
743.7131	160.1018
743.8636	155.9643
744.0142	157.6853
744.1648	155.7407
744.3154	151.2825
744.4659	151.2818
744.6165	151.588
744.767	151.3011
744.9176	157.1179
745.0681	154.4051
745.2186	157.6462
745.3691	153.9561
745.5197	147.412
745.6702	152.3047
745.8206	155.8311
745.9711	162.8644
746.1215	157.3192
746.272	151.8376
746.4224	154.6247
746.5729	152.6847
746.7233	151.9103
746.8737	148.4954
747.0241	146.8121
747.1745	153.0953
747.3249	155.1777
747.4753	151.0833
747.6257	147.5335
747.776	156.7104
747.9264	150.3562
748.0767	144.689
748.2271	145.1735
748.3774	152.1064
748.5276	146.9772
748.678	145.6788
748.8282	147.8812
748.9786	149.006
749.1288	154.4137
749.2791	150.0312
749.4294	142.5409
749.5796	146.6564
749.7299	148.9129
749.8801	144.5384
750.0303	139.9695
750.1805	146.4077
750.3307	143.0541
750.4809	146.6402
750.6311	149.0772
750.7813	142.109
750.9314	142.3351
751.0816	143.0414
751.2318	144.2383
751.3818	149.9617
751.532	145.7299
751.6821	143.2899
751.8322	145.3704
751.9823	146.3736
752.1324	144.0563
752.2825	143.9058
752.4326	144.4631
752.5826	147.0827
752.7327	148.0641
752.8827	143.6444
753.0327	144.8631
753.1827	143.8015
753.3328	134.469
753.4828	138.4841
753.6328	139.7729
753.7828	137.9983
753.9327	140.0367
754.0827	142.1203
754.2327	142.3015
754.3826	136.5686
754.5325	140.6086
754.6825	140.5112
754.8324	144.5861
754.9823	137.0374
755.1322	136.5939
755.2821	137.7151
755.432	134.4711
755.5818	139.8334
755.7318	144.552
755.8816	139.3277
756.0314	135.834
756.1813	136.1056
756.3311	139.367
756.4809	135.8954
756.6307	134.7673
756.7805	132.4661
756.9303	129.5468
757.0801	133.2162
757.2299	136.4216
757.3796	138.0027
757.5294	133.6618
757.6791	133.2099
757.8289	131.4684
757.9786	128.3009
758.1283	129.294
758.278	133.5798
758.4277	128.2625
758.5773	131.4045
758.7271	137.1409
758.8767	128.6758
759.0264	128.7076
759.176	128.6265
759.3256	125.9482
759.4753	112.8331
759.6249	98.42567
759.7745	85.79605
759.9241	82.63444
760.0737	81.28876
760.2233	78.84174
760.3729	82.91618
760.5224	75.24045
760.6719	79.6899
760.8215	75.32808
760.971	74.9419
761.1205	77.07078
761.2701	85.13869
761.4196	90.58744
761.5691	94.99096
761.7186	102.957
761.868	100.9333
762.0175	104.4581
762.167	102.0477
762.3164	98.05225
762.4659	91.84092
762.6153	95.58574
762.7647	91.88914
762.9141	87.62086
763.0635	86.79146
763.2129	85.51647
763.3623	93.03094
763.5117	96.93168
763.661	85.02739
763.8104	88.25331
763.9597	97.69922
764.1091	100.3943
764.2584	99.43176
764.4077	93.86795
764.557	97.52847
764.7063	103.4962
764.8556	104.6245
765.0049	102.2681
765.1541	100.6562
765.3034	100.6246
765.4526	103.883
765.6019	102.5093
765.7511	103.6836
765.9003	110.7716
766.0496	111.4969
766.1987	111.832
766.348	109.2061
766.4971	112.8529
766.6463	113.3921
766.7955	122.0533
766.9446	114.9374
767.0938	112.2978
767.2429	109.1433
767.392	111.1223
767.5411	116.2196
767.6902	115.9017
767.8394	110.836
767.9884	111.6656
768.1375	109.944
768.2866	115.8679
768.4356	118.0797
768.5847	111.3638
768.7337	117.4971
768.8828	115.4
769.0317	112.8502
769.1808	105.8844
769.3298	110.6138
769.4788	111.1763
769.6277	108.82
769.7767	111.5223
769.9257	111.77
770.0746	114.5841
770.2236	110.9768
770.3725	115.7993
770.5214	116.2914
770.6703	117.0767
770.8193	116.8687
770.9681	115.1504
771.1171	113.6592
771.2659	108.3895
771.4148	112.7005
771.5637	115.9422
771.7125	107.69
771.8613	110.3293
772.0101	116.24
772.159	118.9185
772.3078	117.0997
772.4566	113.494
772.6054	109.8488
772.7542	113.2012
772.903	116.5431
773.0517	111.8698
773.2004	113.1851
773.3492	115.8252
773.4979	114.0135
773.6467	115.076
773.7953	115.0986
773.944	112.7913
774.0928	104.1871
774.2415	107.2643
774.3901	106.8715
774.5388	105.5497
774.6874	107.8096
774.8361	110.1513
774.9847	110.9659
775.1334	105.814
775.282	104.9052
775.4305	107.6203
775.5792	101.0934
775.7277	105.3738
775.8763	104.2528
776.0249	106.0493
776.1735	111.64
776.322	108.8819
776.4705	108.3844
776.6191	105.985
776.7676	106.6118
776.9161	111.5341
777.0646	115.5657
777.2131	107.4165
777.3616	102.4311
777.5101	105.7868
777.6585	111.9897
777.8069	106.8047
777.9554	105.8833
778.1038	104.6234
778.2523	100.9563
778.4007	105.6516
778.5491	103.7925
778.6974	105.818
778.8459	109.8967
778.9942	109.9753
779.1426	108.4444
779.291	102.0898
779.4393	103.3532
779.5876	101.2065
779.736	109.2556
779.8843	102.9976
780.0326	98.99257
780.1809	107.0729
780.3292	106.8905
780.4775	102.6847
780.6257	98.74515
780.774	105.2884
780.9222	104.7577
781.0704	100.5416
781.2187	95.8717
781.3669	101.7439
781.5151	103.389
781.6633	98.78915
781.8115	97.41218
781.9597	107.3435
782.1078	107.202
782.256	105.3311
782.4042	103.3509
782.5523	100.664
782.7004	99.03826
782.8486	100.1084
782.9967	103.1567
783.1448	103.3428
783.2929	104.3839
783.441	104.4023
783.5891	97.79842
783.7371	98.34162
783.8851	102.1002
784.0332	102.071
784.1812	102.4263
784.3293	98.53058
784.4773	99.52898
784.6253	101.115
784.7733	100.4093
784.9213	97.68202
785.0692	100.8713
785.2172	96.58383
785.3652	99.08315
785.5131	95.51654
785.6611	95.82358
785.809	97.97832
785.9569	94.90742
786.1048	105.6504
786.2527	99.65186
786.4006	91.93882
786.5485	99.53601
786.6964	99.48621
786.8442	97.02369
786.9921	93.50662
787.1399	92.14025
787.2877	97.24416
787.4355	97.09721
787.5833	95.59393
787.7311	93.96051
787.8789	95.62331
788.0267	93.57738
788.1745	92.09793
788.3223	90.53692
788.47	93.39765
788.6177	95.75261
788.7654	95.45164
788.9132	92.43826
789.0609	97.26734
789.2086	93.40796
789.3563	89.55571
789.504	85.85876
789.6517	96.30199
789.7993	91.84371
789.947	91.96479
790.0946	94.67153
790.2422	93.84737
790.3898	89.43021
790.5375	96.04751
790.6851	96.04494
790.8326	90.76144
790.9802	88.94174
791.1278	92.79514
791.2754	92.01624
791.423	91.93269
791.5705	88.42501
791.718	91.27638
791.8655	89.29379
792.0131	93.95686
792.1606	93.80968
792.308	92.60643
792.4556	91.25134
792.603	95.60485
792.7505	90.72769
792.8979	86.62261
793.0454	86.77583
793.1928	87.65536
793.3403	88.31154
793.4877	88.95868
793.6351	87.64856
793.7825	91.91219
793.9299	89.16702
794.0772	90.01171
794.2246	90.97258
794.3719	90.10027
794.5193	80.92338
794.6666	79.16163
794.814	87.59074
794.9613	91.95902
795.1086	82.09175
795.2559	85.26736
795.4032	89.17029
795.5505	91.59487
795.6978	88.3476
795.845	85.255
795.9922	85.36484
796.1395	83.95844
796.2867	88.25932
796.4339	85.80683
796.5811	90.04556
796.7283	87.42896
796.8755	84.21142
797.0227	85.25349
797.1699	86.06487
797.317	82.4835
797.4642	88.92127
797.6113	87.3051
797.7584	85.36652
797.9056	81.8839
798.0527	84.61066
798.1998	85.92091
798.3469	80.96651
798.494	81.68616
798.641	85.71025
798.7881	90.15299
798.9351	86.056
799.0822	87.74299
799.2292	85.70222
799.3762	80.3959
799.5232	87.45237
799.6702	84.3857
799.8172	88.51461
799.9642	82.61763
800.1111	82.89516
800.2581	79.76087
800.4051	78.59837
800.552	79.64096
800.6989	80.25527
800.8458	77.54557
800.9927	85.03572
801.1396	79.50694
801.2866	80.87955
801.4334	84.07642
801.5803	85.76524
801.7272	84.12481
801.874	79.59303
802.0209	78.54021
802.1677	82.72731
802.3145	84.07977
802.4613	80.96783
802.6081	79.11996
802.7549	79.95208
802.9017	78.42473
803.0485	81.15698
803.1952	82.77116
803.342	79.21203
803.4887	84.08472
803.6354	82.25863
803.7822	76.98048
803.9289	76.96037
804.0756	79.34904
804.2223	75.8839
804.369	78.32403
804.5156	80.89679
804.6623	80.68288
804.8089	80.05984
804.9556	80.2061
805.1022	76.66306
805.2488	76.42344
805.3954	75.75824
805.542	77.79972
805.6886	75.86333
805.8352	78.70795
805.9818	73.96626
806.1283	74.47541
806.2749	71.06448
806.4214	76.43841
806.5679	77.97244
806.7145	80.54689
806.861	76.20821
807.0074	80.87984
807.154	80.4196
807.3004	76.14568
807.4469	76.65829
807.5934	77.17066
807.7398	79.98161
807.8862	72.93017
808.0327	73.63616
808.1791	73.8393
808.3255	76.75491
808.4719	77.22169
808.6183	75.22133
808.7647	75.21119
808.9111	74.82916
809.0574	73.57124
809.2037	73.97414
809.3501	73.3998
809.4965	71.21056
809.6428	68.10653
809.7891	70.65175
809.9354	74.72534
810.0817	78.66376
810.2279	72.9319
810.3742	70.66602
810.5204	73.75317
810.6667	73.05391
810.8129	68.64759
810.9592	64.29245
811.1054	68.60884
811.2516	73.10774
811.3978	72.97688
811.5439	73.82818
811.6901	71.00365
811.8363	72.2343
811.9825	67.36034
812.1286	76.9286
812.2748	75.55637
812.4209	67.03197
812.567	74.71703
812.7131	74.01807
812.8592	68.93067
813.0053	66.55017
813.1514	69.55048
813.2974	67.40865
813.4435	65.43161
813.5895	65.8979
813.7356	67.82793
813.8816	61.17039
814.0276	59.88356
814.1736	62.29845
814.3196	65.20213
814.4656	60.26747
814.6116	65.72601
814.7576	65.58996
814.9035	62.82285
815.0494	61.46833
815.1954	62.88693
815.3413	64.249
815.4872	58.83739
815.6331	62.18884
815.779	68.83837
815.9249	66.88409
816.0707	56.59103
816.2166	64.14204
816.3625	60.70953
816.5083	55.58731
816.6542	61.51059
816.8	62.77689
816.9458	61.43636
817.0916	63.44428
817.2374	60.21521
817.3832	64.43911
817.5289	66.24424
817.6747	58.15971
817.8204	60.67318
817.9662	60.04122
818.1119	60.16604
818.2576	59.14118
818.4034	60.45992
818.5491	63.83547
818.6948	65.47345
818.8405	57.12592
818.9861	59.51134
819.1318	63.15655
819.2774	59.63661
819.423	63.2733
819.5687	66.62985
819.7143	63.10678
819.8599	56.85097
820.0055	60.19685
820.1511	59.93903
820.2967	57.91754
820.4422	64.07915
820.5878	62.66843
820.7333	60.04593
820.8788	65.42191
821.0244	68.42959
821.1699	61.58093
821.3154	65.94428
821.4609	63.37186
821.6064	56.7716
821.7519	62.35284
821.8973	67.21395
822.0428	58.15863
822.1882	60.71646
822.3337	60.82509
822.4791	61.46159
822.6245	53.86377
822.7699	60.02253
822.9153	52.57677
823.0607	48.87164
823.2061	52.16019
823.3514	55.90387
823.4968	53.83735
823.6422	57.10252
823.7875	56.51511
823.9328	58.44543
824.0781	57.9173
824.2234	58.65493
824.3687	57.51051
824.514	55.48598
824.6592	57.53036
824.8045	60.38277
824.9498	65.08398
825.095	59.40649
825.2402	56.32421
825.3854	57.04541
825.5306	61.26615
825.6758	57.15331
825.821	60.82705
825.9662	57.92778
826.1114	58.41972
826.2565	59.2125
826.4017	56.55589
826.5468	62.09201
826.692	61.13282
826.837	59.43831
826.9822	63.41227
827.1273	62.6951
827.2723	57.94302
827.4174	53.91179
827.5625	50.82476
827.7075	52.49676
827.8526	54.72847
827.9976	57.61884
828.1426	57.66226
828.2877	61.2578
828.4327	56.40957
828.5776	56.87204
828.7227	51.57031
828.8676	55.90332
829.0126	57.86685
829.1575	59.58188
829.3024	52.83582
829.4474	51.41728
829.5923	51.0186
829.7372	52.962
829.8821	56.60769
830.027	55.54827
830.1719	56.26375
830.3168	50.86994
830.4616	51.08679
830.6064	52.38932
830.7513	54.15787
830.8961	55.89805
831.041	56.47415
831.1857	54.36558
831.3306	50.65046
831.4753	53.4353
831.6201	53.8717
831.7649	53.29956
831.9096	49.42877
832.0544	54.52242
832.1991	56.99743
832.3438	55.57966
832.4885	57.2817
832.6332	52.51532
832.778	56.77552
832.9226	52.37505
833.0673	51.28231
833.2119	55.08308
833.3566	55.16737
833.5012	49.63731
833.6459	51.59879
833.7905	53.08118
833.9351	50.88821
834.0797	53.47906
834.2243	53.16548
834.3688	52.6851
834.5134	53.5811
834.658	52.17756
834.8026	55.85411
834.9471	52.68411
835.0916	55.69306
835.2361	58.06347
835.3806	56.12844
835.5251	58.7779
835.6696	54.85973
835.8141	57.1526
835.9586	54.82834
836.103	52.82537
836.2474	54.82279
836.3918	53.13285
836.5363	53.4596
836.6807	52.13511
836.8251	59.09266
836.9695	56.363
837.1138	54.41892
837.2582	53.50429
837.4026	52.27558
837.5469	53.92707
837.6913	55.19004
837.8356	52.20847
837.9799	53.85447
838.1242	57.19422
838.2686	54.07483
838.4128	52.2697
838.5571	55.33802
838.7014	60.0081
838.8456	52.71827
838.9899	54.77505
839.1341	52.05518
839.2783	56.39906
839.4225	54.60394
839.5667	49.76894
839.7109	56.11712
839.8551	53.57879
839.9993	48.06145
840.1434	52.38794
840.2876	51.16897
840.4317	52.84805
840.5759	57.74099
840.72	56.76161
840.8641	52.46016
841.0082	48.21207
841.1523	53.67579
841.2963	53.69321
841.4404	49.05281
841.5845	52.63594
841.7285	51.77628
841.8726	53.53487
842.0165	47.72231
842.1606	49.46024
842.3046	49.95603
842.4485	50.41084
842.5925	51.43578
842.7365	46.59831
842.8805	50.341
843.0244	49.9013
843.1684	56.41409
843.3123	54.44827
843.4562	49.67677
843.6002	49.60287
843.744	55.54227
843.8879	49.86469
844.0318	45.73911
844.1757	49.71624
844.3195	51.58287
844.4634	50.51136
844.6072	45.6399
844.751	50.85491
844.8948	51.21887
845.0386	49.51273
845.1824	48.79693
845.3262	47.68232
845.47	50.39961
845.6138	46.49516
845.7575	45.58542
845.9012	47.14212
846.045	47.73883
846.1887	48.84588
846.3324	51.28677
846.4761	46.14566
846.6198	50.32464
846.7635	48.82141
846.9071	47.10009
847.0508	52.9003
847.1944	49.35424
847.3381	48.08096
847.4817	51.08059
847.6253	50.47166
847.7689	44.38059
847.9125	49.05187
848.0561	50.87676
848.1996	47.38766
848.3432	45.64304
848.4868	47.77055
848.6303	45.67307
848.7738	48.8717
848.9174	51.22776
849.0609	52.51235
849.2043	50.98977
849.3478	52.22757
849.4913	49.42454
849.6348	46.06458
849.7782	48.31676
849.9217	42.56642
850.0651	47.59644
850.2086	48.0901
850.3519	44.36179
850.4954	42.33478
850.6387	43.09914
850.7821	47.7603
850.9255	47.9427
851.0688	47.58351
851.2122	50.54231
851.3555	45.14208
851.4988	42.72938
851.6422	40.89753
851.7855	43.19455
851.9288	49.65527
852.0721	51.15117
852.2153	47.51494
852.3586	44.75032
852.5018	45.33745
852.6451	43.14784
852.7883	43.8494
852.9315	46.66491
853.0748	46.7107
853.218	44.94556
853.3611	46.10029
853.5043	41.78453
853.6475	44.99481
853.7906	40.58116
853.9338	42.75519
854.0769	42.62156
854.22	40.43291
854.3632	38.4286
854.5063	44.14957
854.6494	43.74372
854.7924	43.00869
854.9355	42.21675
855.0786	44.21421
855.2216	44.87808
855.3647	40.89762
855.5077	41.50168
855.6507	46.63599
855.7937	44.0629
855.9367	44.77225
856.0797	49.85043
856.2227	43.02077
856.3657	41.36725
856.5086	44.57619
856.6516	44.42888
856.7945	45.10564
856.9374	46.13046
857.0803	41.76286
857.2232	42.8661
857.3661	43.73497
857.509	44.49652
857.6519	42.68609
857.7947	44.84882
857.9376	43.3298
858.0804	48.80687
858.2232	48.0692
858.366	45.81229
858.5089	44.30581
858.6516	40.60246
858.7944	39.49145
858.9372	40.44683
859.08	45.58522
859.2227	43.21631
859.3654	43.11108
859.5082	37.06836
859.6509	43.65176
859.7936	42.61641
859.9363	45.56034
860.079	44.82425
860.2217	38.268
860.3643	42.33225
860.507	42.07594
860.6496	42.12976
860.7922	44.00702
860.9349	42.54049
861.0775	43.91702
861.2201	43.31318
861.3627	43.87254
861.5052	46.53984
861.6478	44.4523
861.7904	42.60763
861.9329	36.61263
862.0755	42.32174
862.218	41.60398
862.3605	44.03478
862.503	45.10442
862.6455	40.58497
862.788	44.57982
862.9305	45.85847
863.0729	44.73866
863.2154	43.29726
863.3578	43.82337
863.5002	40.41441
863.6426	41.13677
863.7851	35.78797
863.9275	40.36323
864.0698	42.88581
864.2122	43.7258
864.3546	41.69266
864.4969	42.3884
864.6393	40.52496
864.7816	45.48641
864.924	42.97159
865.0662	40.4291
865.2086	43.09414
865.3508	36.62356
865.4931	40.45665
865.6354	42.96398
865.7776	38.745
865.9199	36.57272
866.0621	34.81157
866.2043	34.93584
866.3466	34.36565
866.4888	36.60816
866.6309	36.36183
866.7731	35.70219
866.9153	39.65984
867.0574	38.47035
867.1996	38.57658
867.3417	37.63002
867.4839	45.47474
867.626	37.33894
867.7681	38.04154
867.9102	40.5043
868.0522	41.24704
868.1943	39.24166
868.3364	40.75477
868.4785	43.19632
868.6205	39.50999
868.7625	34.94294
868.9045	39.44324
869.0465	41.06126
869.1885	41.25234
869.3305	38.80099
869.4725	36.80009
869.6144	39.76515
869.7564	38.73048
869.8983	37.72938
870.0403	36.69495
870.1822	36.17385
870.3241	36.85654
870.466	34.90589
870.6079	40.03237
870.7498	40.53667
870.8916	40.04938
871.0335	37.87964
871.1754	36.63031
871.3171	38.45197
871.459	40.86382
871.6008	41.30748
871.7426	39.8829
871.8844	39.52188
872.0262	41.28596
872.1679	37.74872
872.3097	38.52456
872.4514	39.34909
872.5931	37.8933
872.7349	36.83489
872.8766	36.77913
873.0183	38.16789
873.16	36.72627
873.3017	38.40165
873.4434	42.8777
873.585	37.28254
873.7266	37.76994
873.8683	36.82005
874.0099	36.49443
874.1516	35.17865
874.2932	32.2119
874.4348	37.17254
874.5763	39.73547
874.7179	37.58551
874.8594	39.59559
875.001	37.03222
875.1425	33.33406
875.2841	36.08234
875.4256	35.89038
875.5671	33.51944
875.7086	31.81311
875.85	36.33567
875.9915	36.13694
876.133	33.18767
876.2744	31.71841
876.4159	33.80365
876.5573	39.16691
876.6987	33.38082
876.8401	32.8372
876.9815	33.99141
877.1229	36.63515
877.2643	34.35546
877.4056	34.46473
877.547	37.74536
877.6884	31.93484
877.8297	39.2764
877.971	37.67505
878.1123	39.46165
878.2536	35.12117
878.3949	35.1714
878.5362	37.33487
878.6774	33.50584
878.8187	32.51122
878.9599	40.05499
879.1011	30.72812
879.2424	31.02993
879.3836	29.62588
879.5248	34.16825
879.666	32.08255
879.8071	35.03756
879.9483	34.8322
880.0895	32.33101
880.2306	35.0145
880.3718	34.72413
880.5129	32.80181
880.654	29.12596
880.7951	29.61017
880.9362	37.14314
881.0773	32.832
881.2183	30.52383
881.3594	34.99942
881.5004	34.48141
881.6414	34.2442
881.7825	36.46291
881.9235	38.06979
882.0645	38.39104
882.2054	31.95265
882.3464	31.41923
882.4874	35.44268
882.6284	36.02071
882.7693	34.16014
882.9103	33.37584
883.0512	31.52459
883.1921	30.76493
883.333	37.605
883.4739	29.44637
883.6147	33.00517
883.7556	32.63393
883.8965	34.53036
884.0374	34.71042
884.1782	31.88508
884.319	36.12352
884.4598	30.78043
884.6006	32.1286
884.7414	30.75663
884.8822	38.76199
885.0229	36.87594
885.1637	33.66624
885.3044	26.44699
885.4452	34.21132
885.5859	32.1179
885.7266	31.45109
885.8673	31.15328
886.008	33.62393
886.1487	39.04707
886.2894	33.65457
886.43	31.80223
886.5707	35.42755
886.7113	34.37776
886.8519	28.20076
886.9926	33.05251
887.1331	32.51339
887.2737	31.11439
887.4143	29.39931
887.5549	31.56157
887.6954	32.68471
887.836	31.40887
887.9765	27.43936
888.1171	33.34877
888.2576	37.29238
888.3981	32.57249
888.5386	26.24962
888.679	27.70844
888.8195	31.00887
888.96	29.50014
889.1004	31.99314
889.2408	34.83298
889.3813	36.80647
889.5217	33.6165
889.6621	35.02617
889.8025	31.81263
889.9429	35.11845
890.0833	29.90221
890.2236	31.34458
890.364	30.54635
890.5043	29.66002
890.6446	30.78429
890.7849	32.38668
890.9252	34.35881
891.0655	36.66003
891.2058	34.64994
891.3461	33.43162
891.4863	28.06824
891.6266	32.69622
891.7668	33.00977
891.907	27.17574
892.0472	29.48115
892.1874	28.32071
892.3276	27.9096
892.4678	28.77948
892.608	30.71363
892.7481	31.02169
892.8883	31.12161
893.0284	28.83986
893.1685	26.33355
893.3087	27.3787
893.4487	26.64027
893.5889	28.71884
893.7289	33.46788
893.869	29.72771
894.009	25.06617
894.1491	28.92583
894.2891	34.22146
894.4291	36.21384
894.5692	29.49293
894.7092	24.76268
894.8491	23.46654
894.9891	25.91638
895.1291	24.24889
895.269	30.65824
895.409	30.13052
895.549	26.51485
895.6888	26.90689
895.8288	21.84448
895.9687	30.10459
896.1086	28.65952
896.2484	26.72872
896.3883	26.82394
896.5281	27.29975
896.668	26.16548
896.8079	28.63601
896.9476	26.39534
897.0875	26.11149
897.2272	24.59606
897.3671	29.56864
897.5068	30.51602
897.6466	30.59411
897.7864	30.00852
897.9261	28.15059
898.0658	28.73025
898.2056	29.28281
898.3453	26.72885
898.4849	26.41513
898.6246	24.52224
898.7643	27.87156
898.904	24.96395
899.0436	26.8645
899.1833	25.7497
899.3229	20.79344
899.4625	27.36084
899.6021	29.10045
899.7417	23.00981
899.8813	25.02122
900.0209	29.49774
900.1605	30.12517
900.3	27.18344
900.4395	25.91603
900.579	25.26188
900.7186	25.92268
900.8581	25.95965
900.9976	32.03228
901.1371	21.85175
901.2766	24.23875
901.416	27.67472
901.5555	26.03772
901.6949	24.78849
901.8344	24.48963
901.9738	27.59505
902.1132	26.41361
902.2526	26.60275
902.3919	24.59764
902.5313	27.98336
902.6707	28.99562
