SPECTRUM DATA FILE
SpectrumCount:	1
PixelCount:	3648
UserName:	ToughBook User
SampleName:	
LightSource:	
Comments:	
DeviceName:	Qwave
DeviceManufacturer:	Broadcom
DeviceSerialNo:	11311

Name:	last spectrum
Date:	2024-05-02T14:49:40.4687979+02:00
ExposureTime:	0.02
TemporalAvg:	1
IntensityUnit:	normalizedCounts
CCDLoadLevel:	0.06410631
Temperature:	32.3692
DiagramColor:	200
ProcessingSteps:	335

Wavelength [nm]	Intensity1
334.421	26.81641
334.5891	30.78191
334.7573	28.61003
334.9254	25.97439
335.0935	26.3425
335.2616	28.26677
335.4297	21.0239
335.5978	23.75654
335.7659	27.43615
335.934	25.0011
336.1021	25.29082
336.2701	27.31602
336.4382	23.43057
336.6063	22.95178
336.7744	20.40717
336.9424	22.70457
337.1105	26.41735
337.2785	25.76435
337.4466	22.68822
337.6146	23.318
337.7827	22.53698
337.9507	23.98209
338.1187	26.48513
338.2867	20.64753
338.4548	22.64339
338.6228	23.48089
338.7908	29.24755
338.9588	31.07965
339.1268	27.75266
339.2948	22.96192
339.4628	28.61845
339.6308	26.00932
339.7988	19.82053
339.9667	23.16567
340.1347	18.15037
340.3027	21.88757
340.4707	25.3305
340.6386	23.179
340.8066	23.69038
340.9745	24.31034
341.1425	24.5418
341.3104	25.20234
341.4784	25.1615
341.6463	23.57084
341.8142	26.06145
341.9821	26.27935
342.1501	23.05445
342.318	23.43737
342.4859	30.35866
342.6538	31.6442
342.8217	28.98179
342.9896	26.94776
343.1575	31.02031
343.3254	26.28515
343.4933	27.07423
343.6612	33.82376
343.829	26.27327
343.9969	27.79918
344.1648	28.04681
344.3326	31.45695
344.5005	31.95958
344.6683	29.18419
344.8362	24.58944
345.004	26.27056
345.1719	25.65301
345.3397	30.60547
345.5075	32.66514
345.6754	27.18885
345.8432	25.73777
346.011	30.75377
346.1788	28.79874
346.3466	28.48718
346.5144	26.17846
346.6822	30.67264
346.85	32.25267
347.0178	26.51323
347.1856	27.3147
347.3534	25.23451
347.5211	27.51937
347.6889	25.27674
347.8567	28.26339
348.0244	26.4765
348.1922	29.17107
348.3599	26.47497
348.5277	27.09
348.6954	30.0204
348.8632	31.19072
349.0309	26.95262
349.1986	30.65874
349.3663	28.74138
349.5341	27.70565
349.7018	26.74151
349.8695	29.62585
350.0372	27.95829
350.2049	32.03555
350.3726	27.02243
350.5403	31.22796
350.7079	28.99462
350.8756	30.5702
351.0433	23.70099
351.211	27.67601
351.3786	27.37506
351.5463	30.33374
351.714	32.11511
351.8816	36.31977
352.0493	28.45589
352.2169	26.87769
352.3846	31.17988
352.5522	27.61135
352.7198	25.23331
352.8875	30.53249
353.0551	30.81923
353.2227	34.13202
353.3903	34.79607
353.5579	34.83246
353.7255	32.72841
353.8931	34.03976
354.0607	31.11521
354.2283	34.79368
354.3958	39.32298
354.5634	35.48444
354.731	34.88183
354.8986	33.38512
355.0661	36.35445
355.2337	36.69142
355.4012	30.88
355.5688	34.51716
355.7363	32.56129
355.9039	33.49694
356.0714	28.83854
356.239	32.17987
356.4065	33.92903
356.574	30.46193
356.7415	30.50625
356.909	27.59679
357.0765	32.19327
357.244	27.43979
357.4115	28.24524
357.579	25.31477
357.7465	31.00249
357.914	30.7608
358.0815	27.67925
358.249	30.41058
358.4164	31.21967
358.5839	29.89388
358.7513	31.54237
358.9188	30.26561
359.0862	31.46127
359.2537	32.1349
359.4211	33.62536
359.5886	33.60349
359.756	29.29402
359.9234	29.58287
360.0909	27.84748
360.2583	34.96066
360.4257	30.97361
360.5931	27.57022
360.7605	26.91957
360.9279	31.28178
361.0953	28.52666
361.2627	34.46611
361.4301	40.31761
361.5974	37.68202
361.7648	32.59084
361.9322	31.81028
362.0995	29.54996
362.2669	31.89348
362.4343	38.88921
362.6016	35.51585
362.769	35.65427
362.9363	32.44743
363.1036	35.69467
363.271	39.41338
363.4383	34.03855
363.6056	36.02587
363.7729	39.34374
363.9402	39.19779
364.1075	40.44822
364.2748	40.56142
364.4421	37.60752
364.6094	37.26029
364.7767	30.51
364.944	29.03671
365.1113	36.71925
365.2786	38.98762
365.4458	36.90818
365.6131	34.86064
365.7803	40.16043
365.9476	36.74144
366.1148	37.71138
366.2821	39.28123
366.4493	41.96331
366.6166	40.4304
366.7838	40.98521
366.951	39.13474
367.1182	40.33358
367.2855	39.13484
367.4527	39.82776
367.6199	34.13567
367.7871	39.92621
367.9543	37.75438
368.1215	35.53215
368.2886	37.93528
368.4558	37.17284
368.623	40.47972
368.7902	39.8919
368.9573	36.91311
369.1245	35.65906
369.2917	40.81382
369.4588	40.9855
369.6259	42.32721
369.7931	38.75566
369.9602	38.09446
370.1274	41.758
370.2945	40.87459
370.4616	37.46068
370.6287	38.28918
370.7958	34.9896
370.963	34.15688
371.1301	40.97292
371.2971	37.73252
371.4643	39.53619
371.6313	44.58861
371.7984	45.30687
371.9655	40.62628
372.1326	42.15796
372.2997	43.08746
372.4667	39.38465
372.6338	42.5192
372.8008	42.75548
372.9679	40.51033
373.1349	40.51865
373.3019	36.70403
373.469	36.13028
373.636	41.09699
373.803	41.45461
373.9701	43.73994
374.1371	42.42432
374.3041	40.82839
374.4711	44.72235
374.6381	46.22505
374.8051	40.00579
374.9721	36.63998
375.1391	41.28759
375.3061	41.11255
375.473	47.8249
375.64	45.46068
375.8069	50.20028
375.9739	45.41212
376.1409	40.4825
376.3078	44.62491
376.4748	41.73528
376.6417	47.92006
376.8087	40.76833
376.9756	45.27205
377.1425	44.48015
377.3094	40.76169
377.4763	46.63578
377.6432	44.15548
377.8102	45.65487
377.9771	47.59234
378.144	49.8061
378.3109	48.43307
378.4777	41.54735
378.6446	45.47812
378.8115	44.1565
378.9784	41.99105
379.1452	41.72897
379.3121	42.34889
379.4789	43.02282
379.6458	40.2562
379.8127	40.61292
379.9795	42.51332
380.1463	42.07087
380.3131	44.64209
380.48	44.25924
380.6468	43.90434
380.8136	47.60501
380.9804	45.17833
381.1472	44.53578
381.314	41.41657
381.4808	45.03651
381.6476	43.86328
381.8144	42.81009
381.9812	45.25864
382.148	42.33955
382.3147	42.10054
382.4815	39.68282
382.6483	36.78645
382.815	37.96025
382.9818	43.54591
383.1485	39.57071
383.3153	39.48183
383.482	37.22556
383.6487	40.22934
383.8155	43.96054
383.9822	45.26161
384.1489	46.63876
384.3156	49.69751
384.4823	51.31641
384.649	50.04271
384.8157	47.21769
384.9824	49.57587
385.1491	47.78151
385.3158	57.68069
385.4825	48.9934
385.6491	47.20213
385.8158	44.8758
385.9825	47.20894
386.1491	49.68538
386.3157	55.63777
386.4824	47.63158
386.649	47.87957
386.8157	48.88847
386.9823	47.38267
387.1489	40.29843
387.3156	44.31118
387.4821	53.78327
387.6488	51.21781
387.8154	49.77791
387.982	49.59407
388.1486	43.40019
388.3152	47.60947
388.4818	48.68701
388.6483	50.47547
388.8149	48.41819
388.9815	50.09991
389.148	58.53942
389.3146	55.75027
389.4811	53.0825
389.6477	52.62494
389.8142	50.1784
389.9808	53.39083
390.1473	50.72638
390.3138	54.88742
390.4804	54.83506
390.6469	54.75065
390.8134	56.30082
390.9799	59.63274
391.1464	59.0699
391.3129	58.7641
391.4794	58.59523
391.6459	60.87403
391.8124	54.78802
391.9789	54.9157
392.1453	52.82558
392.3118	55.98992
392.4782	55.42873
392.6447	52.00078
392.8112	45.71422
392.9776	46.32541
393.144	43.38017
393.3105	38.64912
393.4769	37.21917
393.6433	41.63049
393.8098	47.3919
393.9762	52.81898
394.1426	57.64106
394.309	50.54742
394.4754	52.92304
394.6418	57.09213
394.8082	65.02576
394.9746	61.30764
395.141	60.12264
395.3073	58.61744
395.4737	67.58692
395.64	67.09029
395.8064	64.49648
395.9728	61.17083
396.1391	59.28525
396.3055	56.90474
396.4718	52.1174
396.6381	44.14839
396.8045	39.20346
396.9708	40.54744
397.1371	50.35232
397.3034	57.92601
397.4697	58.44501
397.636	66.4487
397.8023	65.14678
397.9686	69.72892
398.1349	66.40907
398.3012	70.3614
398.4675	73.99997
398.6337	71.72907
398.8	77.25875
398.9662	73.27415
399.1325	68.81313
399.2988	75.2051
399.465	84.19029
399.6313	78.27024
399.7975	75.79527
399.9637	74.74109
400.1299	69.95444
400.2961	67.9607
400.4624	73.2275
400.6286	73.40798
400.7948	75.69933
400.961	76.32337
401.1272	73.6309
401.2934	74.66676
401.4595	72.607
401.6257	78.11433
401.7919	83.52863
401.9581	79.83498
402.1242	76.0634
402.2904	81.38423
402.4565	81.96339
402.6227	80.40162
402.7888	79.38547
402.955	79.19095
403.1211	73.0728
403.2872	70.7348
403.4533	74.72651
403.6194	77.03805
403.7856	83.77486
403.9517	83.04051
404.1177	73.8565
404.2838	76.25721
404.4499	70.47021
404.616	69.8281
404.7821	76.31678
404.9482	74.40757
405.1142	82.36472
405.2803	77.25356
405.4464	75.24877
405.6124	78.6151
405.7784	79.58032
405.9445	76.33201
406.1105	71.23876
406.2766	79.52322
406.4426	78.76147
406.6086	77.64334
406.7746	78.20749
406.9406	88.41915
407.1066	86.00551
407.2726	78.49541
407.4386	74.89395
407.6046	82.94794
407.7706	76.33025
407.9366	84.13867
408.1025	86.45029
408.2685	85.05704
408.4344	89.95055
408.6004	89.17518
408.7664	91.48199
408.9323	91.54217
409.0983	89.13661
409.2642	85.66102
409.4301	88.57595
409.596	84.43318
409.762	87.87392
409.9279	79.93793
410.0938	77.6202
410.2597	77.95143
410.4256	89.58311
410.5915	91.89272
410.7574	92.61128
410.9232	88.45377
411.0891	97.38831
411.255	95.2659
411.4209	92.14067
411.5867	96.58651
411.7526	97.00175
411.9184	94.02413
412.0843	104.9813
412.2501	102.8286
412.4159	96.00582
412.5818	96.32263
412.7476	95.14007
412.9134	93.51337
413.0792	96.96579
413.245	90.47045
413.4108	94.95437
413.5766	99.42459
413.7424	101.7657
413.9082	97.22528
414.074	105.6659
414.2397	92.97877
414.4055	87.28176
414.5713	91.60882
414.737	89.83048
414.9028	96.0594
415.0685	100.5356
415.2343	93.41865
415.4	89.64362
415.5658	96.65677
415.7315	92.92072
415.8972	93.1864
416.0629	97.76104
416.2286	96.89536
416.3943	98.80135
416.56	97.80069
416.7257	98.18211
416.8914	92.79853
417.0571	93.56818
417.2228	95.75043
417.3884	94.64693
417.5541	95.07983
417.7198	94.70673
417.8854	95.17863
418.0511	93.33114
418.2167	95.06464
418.3824	95.40881
418.548	95.28708
418.7136	96.23898
418.8792	95.21423
419.0449	93.40826
419.2105	99.72483
419.3761	102.9784
419.5417	97.2971
419.7073	97.41256
419.8729	97.2919
420.0385	99.17338
420.204	92.96915
420.3696	100.8637
420.5352	99.76699
420.7007	101.5776
420.8663	107.9357
421.0319	105.6416
421.1974	103.9191
421.3629	102.7814
421.5285	111.2718
421.694	105.4838
421.8595	106.144
422.0251	113.0706
422.1906	107.345
422.3561	105.0516
422.5216	96.40703
422.6871	96.89123
422.8526	106.357
423.0181	107.3637
423.1835	109.962
423.349	108.3755
423.5145	106.3222
423.68	109.5629
423.8454	105.4102
424.0109	108.5259
424.1763	115.5611
424.3418	115.4122
424.5072	113.0869
424.6726	106.8534
424.838	105.0198
425.0035	101.8335
425.1689	109.0885
425.3343	110.6012
425.4997	112.4904
425.6651	110.3029
425.8305	112.329
425.9959	107.6741
426.1613	113.0329
426.3267	111.3278
426.492	112.1519
426.6574	112.804
426.8228	118.2785
426.9881	106.5199
427.1534	102.4482
427.3188	107.1417
427.4841	100.7773
427.6495	111.3471
427.8148	114.8378
427.9801	112.6909
428.1454	111.7668
428.3107	108.5688
428.476	112.1691
428.6414	106.3282
428.8066	108.2025
428.9719	108.3954
429.1372	109.2026
429.3025	110.2758
429.4678	106.1538
429.633	110.7269
429.7983	100.1954
429.9636	90.94955
430.1288	82.31013
430.294	86.17387
430.4593	96.89562
430.6245	98.58392
430.7897	91.5769
430.955	93.16281
431.1202	97.8091
431.2854	100.6357
431.4506	111.7984
431.6158	124.2732
431.781	127.725
431.9462	132.5701
432.1114	122.5022
432.2766	111.645
432.4417	106.87
432.6069	101.771
432.772	112.0256
432.9372	119.2762
433.1024	123.1105
433.2675	126.7877
433.4326	125.3976
433.5977	118.3838
433.7629	115.6341
433.928	107.2676
434.0931	103.5389
434.2582	105.6944
434.4233	115.8016
434.5884	126.518
434.7535	124.6838
434.9186	130.0788
435.0837	123.5808
435.2488	119.191
435.4138	122.0731
435.5789	127.3194
435.744	129.6387
435.909	123.9778
436.0741	130.8286
436.2391	129.8691
436.4042	129.912
436.5692	131.8531
436.7342	132.1787
436.8992	132.8248
437.0643	131.8533
437.2293	134.0724
437.3943	127.4202
437.5593	125.5555
437.7243	129.922
437.8893	134.0238
438.0542	135.1267
438.2192	127.2167
438.3842	113.8408
438.5491	115.8926
438.7141	123.3352
438.8791	124.8197
439.044	132.9398
439.209	135.2564
439.3739	130.2621
439.5388	136.9561
439.7037	141.3018
439.8687	134.3962
440.0336	131.7664
440.1985	131.9879
440.3634	128.939
440.5283	128.6142
440.6932	130.1616
440.8581	134.3124
441.0229	140.7312
441.1878	145.4741
441.3527	145.5112
441.5175	139.1138
441.6824	139.8097
441.8472	143.772
442.0121	146.2713
442.1769	141.0787
442.3418	141.8046
442.5066	141.6327
442.6714	147.0513
442.8362	150.1989
443.001	139.5598
443.1659	143.1312
443.3307	141.7566
443.4955	143.6639
443.6602	148.1776
443.825	147.1676
443.9898	138.8447
444.1546	140.8625
444.3193	146.0093
444.4841	143.8229
444.6488	152.679
444.8136	149.7404
444.9783	149.9557
445.1431	147.7533
445.3078	139.9485
445.4725	136.6078
445.6372	140.9888
445.802	146.5523
445.9667	140.8552
446.1314	140.1463
446.2961	143.8067
446.4608	142.7118
446.6255	145.9248
446.7901	142.5064
446.9548	147.7143
447.1195	154.8858
447.2841	153.3577
447.4488	153.9139
447.6134	157.6735
447.7781	158.174
447.9427	150.0359
448.1074	155.7927
448.272	145.6233
448.4366	146.4861
448.6012	156.0053
448.7658	160.5195
448.9305	151.4207
449.095	154.747
449.2596	152.9617
449.4242	156.612
449.5888	156.5935
449.7534	155.6021
449.9179	161.6841
450.0825	172.3954
450.2471	171.6845
450.4116	165.0536
450.5762	172.171
450.7407	163.8904
450.9052	166.7199
451.0698	164.7887
451.2343	165.5436
451.3988	162.9285
451.5633	168.2204
451.7278	169.5283
451.8923	160.5757
452.0568	161.3034
452.2213	163.7254
452.3858	163.6427
452.5503	152.0565
452.7148	148.0114
452.8792	155.8074
453.0437	159.6184
453.2081	159.9231
453.3726	159.7115
453.537	167.0593
453.7015	170.554
453.8659	169.494
454.0303	166.9981
454.1947	172.2027
454.3592	172.2638
454.5236	168.5851
454.688	163.808
454.8524	165.5633
455.0168	164.7711
455.1811	170.6585
455.3455	164.2673
455.5099	173.2967
455.6743	169.839
455.8386	173.5362
456.003	172.6106
456.1673	176.4694
456.3317	176.1898
456.496	171.7776
456.6603	177.1044
456.8246	183.9975
456.989	180.9171
457.1533	170.7652
457.3176	173.6464
457.4819	181.7266
457.6462	180.5354
457.8105	176.2279
457.9748	170.6375
458.1391	169.0408
458.3033	166.7797
458.4676	170.171
458.6319	173.1765
458.7961	173.6272
458.9604	171.5069
459.1246	168.9998
459.2888	165.8942
459.4531	173.6979
459.6173	181.6331
459.7815	172.2326
459.9457	164.1349
460.11	166.1977
460.2741	172.1337
460.4384	171.3732
460.6025	173.2155
460.7667	172.3351
460.9309	176.7314
461.0951	178.5049
461.2592	178.365
461.4234	180.0887
461.5876	177.3233
461.7517	184.3997
461.9159	181.3844
462.08	177.1685
462.2441	177.726
462.4082	180.2643
462.5724	182.671
462.7365	176.721
462.9006	178.633
463.0647	178.1606
463.2288	182.6691
463.3929	180.9707
463.557	182.9918
463.721	181.7066
463.8851	173.6787
464.0492	176.39
464.2132	177.152
464.3773	182.9305
464.5414	179.8347
464.7054	167.9067
464.8694	173.0658
465.0334	173.1321
465.1975	182.8125
465.3615	185.328
465.5255	176.7535
465.6895	181.1312
465.8535	183.8236
466.0175	178.247
466.1815	181.883
466.3455	182.9105
466.5095	176.4191
466.6734	174.6136
466.8374	172.4129
467.0014	177.2371
467.1653	180.7931
467.3293	181.1992
467.4932	179.1013
467.6571	181.6184
467.8211	176.5863
467.985	174.3371
468.1489	175.9224
468.3128	180.3703
468.4767	177.8732
468.6406	183.0702
468.8045	177.2568
468.9684	181.8837
469.1323	184.9553
469.2962	189.0624
469.46	190.0422
469.6239	187.7668
469.7878	189.1274
469.9516	186.2616
470.1154	178.6576
470.2793	176.5225
470.4431	182.231
470.607	180.0733
470.7708	178.4176
470.9346	179.428
471.0984	179.6792
471.2622	184.7096
471.426	190.6474
471.5898	184.1801
471.7536	192.5852
471.9174	199.4491
472.0811	199.7693
472.2449	194.042
472.4087	203.3717
472.5724	200.1924
472.7362	187.6197
472.8999	182.2032
473.0637	188.7221
473.2274	194.7491
473.3911	188.8734
473.5548	189.9042
473.7185	192.3434
473.8822	187.5602
474.0459	191.4085
474.2096	193.7872
474.3733	202.9646
474.537	202.0235
474.7007	204.2657
474.8643	201.2802
475.028	196.1176
475.1917	194.2207
475.3553	189.9218
475.519	191.5924
475.6826	196.8083
475.8463	195.4542
476.0099	188
476.1735	197.4637
476.3371	190.6897
476.5007	193.0003
476.6643	188.0411
476.8279	184.492
476.9915	193.3952
477.1551	199.9044
477.3187	198.3397
477.4823	193.6623
477.6458	194.8425
477.8094	195.3217
477.9729	202.2101
478.1365	189.6097
478.3	193.0959
478.4636	190.3042
478.6271	186.9241
478.7906	187.0409
478.9541	190.5508
479.1176	193.8089
479.2812	195.8517
479.4447	202.7092
479.6082	201.2271
479.7716	207.8045
479.9351	202.6577
480.0986	194.0663
480.2621	191.914
480.4255	198.3349
480.589	193.2862
480.7524	193.7459
480.9159	193.592
481.0793	190.9564
481.2428	187.3746
481.4062	195.6973
481.5696	196.4911
481.733	190.2194
481.8964	197.1952
482.0598	203.5378
482.2232	202.4745
482.3866	198.5879
482.55	190.3478
482.7134	193.5083
482.8768	191.6699
483.0401	194.4984
483.2035	197.4906
483.3668	199.8524
483.5302	195.9945
483.6935	196.8114
483.8568	191.7815
484.0202	191.8258
484.1835	194.4793
484.3468	193.872
484.5101	199.7268
484.6734	194.4883
484.8367	202.9668
485	201.4043
485.1633	197.1052
485.3266	195.9538
485.4899	192.7519
485.6531	179.337
485.8164	174.6975
485.9796	163.9439
486.1429	157.0356
486.3061	167.1831
486.4694	178.1174
486.6326	186.384
486.7958	194.8566
486.959	184.4268
487.1223	185.1141
487.2855	184.4539
487.4486	183.4018
487.6118	188.3998
487.775	193.2821
487.9382	199.1263
488.1014	202.4683
488.2646	202.9359
488.4277	207.5358
488.5909	200.6232
488.754	186.4816
488.9171	190.8543
489.0803	193.1666
489.2434	190.8645
489.4066	197.5652
489.5697	204.0395
489.7328	209.77
489.8959	210.2536
490.059	206.3176
490.2221	209.6275
490.3852	207.9941
490.5482	205.3426
490.7113	208.1463
490.8744	208.0204
491.0374	201.0306
491.2005	198.2995
491.3636	205.5575
491.5266	206.3051
491.6896	207.4288
491.8527	197.3462
492.0157	190.5506
492.1787	192.4065
492.3417	196.5616
492.5047	201.923
492.6677	209.0069
492.8307	206.4686
492.9937	209.4932
493.1567	210.5817
493.3196	208.9069
493.4826	199.6421
493.6456	205.4743
493.8085	198.9267
493.9715	192.5759
494.1344	202.6884
494.2974	211.0894
494.4603	210.7538
494.6232	208.5003
494.7861	211.6908
494.949	213.5615
495.1119	212.8795
495.2748	211.4708
495.4377	215.9646
495.6006	202.8896
495.7635	200.4417
495.9264	208.6283
496.0892	210.821
496.2521	214.0579
496.4149	213.621
496.5778	214.4442
496.7407	213.1104
496.9035	210.7776
497.0663	208.2701
497.2291	211.4135
497.3919	209.5944
497.5547	213.8722
497.7176	219.3673
497.8804	209.6091
498.0432	210.2352
498.2059	204.6156
498.3687	198.8276
498.5315	203.914
498.6942	212.9393
498.857	210.7456
499.0198	203.9046
499.1825	206.1463
499.3452	215.524
499.508	215.1827
499.6707	213.5471
499.8334	212.3243
499.9962	208.0795
500.1589	208.0102
500.3216	208.9543
500.4843	206.4712
500.6469	202.55
500.8096	202.5078
500.9723	206.5925
501.135	208.6157
501.2976	203.3042
501.4603	199.5453
501.623	206.3323
501.7856	193.8877
501.9482	198.0958
502.1109	212.1268
502.2735	210.0897
502.4361	213.0815
502.5987	208.2334
502.7614	208.02
502.924	207.9778
503.0865	209.4459
503.2491	210.0976
503.4117	221.5022
503.5743	212.8523
503.7368	206.7983
503.8994	203.088
504.062	200.1602
504.2245	203.0942
504.3871	211.2135
504.5496	216.704
504.7121	222.9935
504.8746	216.4545
505.0372	212.3882
505.1997	209.7623
505.3622	222.3074
505.5247	221.9947
505.6872	220.1024
505.8497	227.2959
506.0121	228.3007
506.1746	228.5629
506.3371	219.2576
506.4995	217.6373
506.662	216.3647
506.8244	219.1477
506.9869	224.9768
507.1493	226.0831
507.3117	227.1866
507.4742	218.8195
507.6366	219.0455
507.799	220.2737
507.9614	213.7827
508.1238	205.4181
508.2862	203.5282
508.4485	216.8717
508.6109	221.5919
508.7733	220.1863
508.9357	216.8301
509.098	227.8021
509.2604	229.6224
509.4227	228.8213
509.5851	231.1226
509.7474	219.0202
509.9097	212.9421
510.072	228.5351
510.2343	226.7092
510.3966	235.0764
510.5589	230.1322
510.7212	225.1517
510.8835	216.1257
511.0458	213.0796
511.2081	225.3504
511.3703	228.2256
511.5326	231.3297
511.6949	235.5647
511.8571	228.8529
512.0193	231.552
512.1816	226.0231
512.3438	219.3563
512.506	211.9935
512.6682	217.5192
512.8304	223.3134
512.9926	220.0941
513.1548	224.0847
513.317	222.667
513.4792	224.1947
513.6414	221.0565
513.8035	220.6258
513.9657	208.4015
514.1279	212.1268
514.29	210.1079
514.4521	213.23
514.6143	219.3882
514.7764	217.2515
514.9385	220.7581
515.1006	223.3774
515.2628	224.7166
515.4249	219.7635
515.587	225.3509
515.7491	223.9832
515.9111	221.8968
516.0732	224.1643
516.2353	229.9484
516.3973	219.255
516.5594	207.9136
516.7214	198.383
516.8835	197.7724
517.0455	197.9584
517.2076	198.4802
517.3696	197.1522
517.5316	205.5246
517.6937	214.7773
517.8557	219.1391
518.0176	224.4329
518.1796	211.2543
518.3416	194.5582
518.5036	193.1738
518.6656	205.8099
518.8275	217.798
518.9895	217.7076
519.1514	218.6536
519.3134	218.7153
519.4753	208.9746
519.6373	212.355
519.7992	212.0173
519.9611	221.2817
520.123	225.4318
520.2849	228.5001
520.4468	216.6709
520.6087	211.6682
520.7706	204.833
520.9325	209.0808
521.0944	216.0122
521.2562	225.9649
521.4181	227.6606
521.58	219.8023
521.7418	215.7599
521.9036	219.8028
522.0655	223.8104
522.2273	220.1662
522.3891	222.6119
522.551	209.8955
522.7128	203.121
522.8746	209.8531
523.0363	218.4612
523.1981	222.7256
523.3599	219.2986
523.5217	217.5798
523.6835	219.4307
523.8452	226.1422
524.007	229.6628
524.1687	227.7442
524.3304	225.7556
524.4922	223.9115
524.6539	226.2811
524.8157	220.3158
524.9774	220.808
525.1391	232.4869
525.3008	224.5402
525.4625	225.2515
525.6241	226.0551
525.7858	234.9604
525.9475	236.1004
526.1092	227.599
526.2709	217.898
526.4325	211.7766
526.5942	207.3456
526.7558	203.8306
526.9174	209.9558
527.079	211.7089
527.2407	218.2372
527.4023	218.9951
527.5639	228.5668
527.7255	219.2801
527.8871	234.5207
528.0487	234.0802
528.2103	233.2249
528.3718	230.6291
528.5334	235.8968
528.695	240.4354
528.8565	237.7528
529.0181	231.6651
529.1796	246.2693
529.3412	233.786
529.5027	227.6055
529.6642	233.2965
529.8257	229.4718
529.9872	222.6468
530.1487	229.395
530.3102	233.1528
530.4717	237.4416
530.6332	232.4893
530.7947	235.0262
530.9562	234.4521
531.1176	247.7166
531.2791	238.041
531.4405	239.9802
531.6019	242.6315
531.7634	240.0968
531.9248	238.7019
532.0862	230.9265
532.2477	227.0615
532.4091	230.2584
532.5704	226.5017
532.7319	223.6756
532.8932	221.0592
533.0546	230.2678
533.216	229.218
533.3774	238.6098
533.5388	237.753
533.7001	238.6392
533.8615	238.5146
534.0228	234.8523
534.1841	230.5715
534.3455	230.9776
534.5068	233.9492
534.6681	236.0124
534.8293	235.4151
534.9907	231.1165
535.152	233.2194
535.3132	235.1778
535.4745	230.7443
535.6358	236.1133
535.7971	243.688
535.9583	242.6663
536.1196	237.211
536.2808	241.0175
536.4421	239.9572
536.6033	237.0406
536.7645	231.8068
536.9258	224.4834
537.087	228.6436
537.2482	228.9284
537.4094	233.9164
537.5706	238.207
537.7318	238.9802
537.8929	233.7984
538.0541	239.2554
538.2153	243.3154
538.3764	244.0136
538.5376	237.4374
538.6987	238.4707
538.8599	238.072
539.021	236.1339
539.1821	234.2964
539.3432	230.7322
539.5043	234.7279
539.6655	224.5643
539.8265	226.1404
539.9876	230.5121
540.1487	232.924
540.3098	231.3017
540.4708	228.9258
540.6319	221.5443
540.793	220.9103
540.954	228.6061
541.1151	229.7588
541.2761	224.4946
541.4371	228.9379
541.5981	232.2825
541.7592	235.6307
541.9202	231.8558
542.0812	234.3356
542.2422	232.0817
542.4031	234.0025
542.5641	228.2033
542.7251	232.6886
542.886	233.8429
543.0471	228.8271
543.208	222.131
543.369	224.8895
543.5298	231.6834
543.6908	228.0187
543.8517	234.5108
544.0126	231.4962
544.1736	228.6513
544.3345	236.1895
544.4954	231.4114
544.6563	225.4012
544.8171	222.9484
544.978	227.2531
545.1389	237.1281
545.2997	227.7735
545.4606	228.626
545.6215	221.0909
545.7823	231.4483
545.9432	230.6066
546.104	231.949
546.2648	228.2084
546.4256	225.4095
546.5864	227.0696
546.7473	229.9152
546.908	230.3827
547.0688	226.8517
547.2296	234.5436
547.3904	232.3571
547.5511	228.9014
547.7119	225.2971
547.8727	228.3864
548.0334	227.8178
548.1942	230.297
548.3549	236.0659
548.5156	240.2834
548.6763	233.8054
548.837	231.8326
548.9977	236.7386
549.1584	235.1524
549.3192	233.6351
549.4798	234.9605
549.6405	235.5759
549.8011	236.5831
549.9619	238.7584
550.1225	236.31
550.2831	234.1802
550.4438	236.1174
550.6044	231.9907
550.765	236.2338
550.9257	236.49
551.0863	234.7815
551.2469	235.4793
551.4075	236.962
551.5681	229.1493
551.7287	241.1839
551.8893	238.9865
552.0498	235.3862
552.2104	237.6239
552.371	232.321
552.5315	229.1394
552.6921	232.9395
552.8526	233.2297
553.0131	240.7281
553.1736	243.7567
553.3342	233.9431
553.4947	230.2789
553.6552	233.5541
553.8157	231.4005
553.9762	248.4526
554.1367	244.3475
554.2971	237.8698
554.4576	239.0328
554.618	240.2652
554.7785	244.4884
554.939	242.7766
555.0994	245.2157
555.2598	250.7124
555.4203	239.3371
555.5807	233.6967
555.7411	242.7064
555.9015	237.0005
556.0619	240.7623
556.2223	243.9051
556.3827	234.0858
556.5431	241.8387
556.7034	243.5099
556.8638	242.1712
557.0242	236.0544
557.1845	241.8469
557.3448	239.7735
557.5052	235.9477
557.6655	235.6831
557.8259	244.6403
557.9861	238.4489
558.1465	236.7431
558.3068	239.992
558.467	237.4854
558.6274	235.2109
558.7877	226.6287
558.9479	225.8838
559.1082	233.4184
559.2684	235.1521
559.4287	239.401
559.5889	238.2234
559.7491	234.4424
559.9094	234.3348
560.0696	225.4532
560.2299	232.598
560.3901	234.7427
560.5502	233.7789
560.7104	243.9498
560.8707	246.0005
561.0308	239.493
561.191	244.3172
561.3511	242.1696
561.5114	231.1101
561.6714	231.2643
561.8316	230.9377
561.9918	242.6198
562.1519	240.0135
562.312	236.9979
562.4722	238.8831
562.6323	242.5437
562.7924	243.1133
562.9525	246.7085
563.1125	247.9303
563.2726	237.8578
563.4327	237.8569
563.5928	243.9466
563.7528	234.269
563.9129	237.0779
564.0729	240.7955
564.233	244.1974
564.393	239.9295
564.553	241.8016
564.7131	242.6257
564.873	244.7326
565.0331	239.6317
565.1931	249.295
565.353	245.0905
565.5131	236.3708
565.673	236.6876
565.833	239.9723
565.9929	233.9293
566.1529	237.955
566.3129	239.8107
566.4728	242.8866
566.6328	239.2981
566.7927	243.7324
566.9526	243.8866
567.1125	239.3116
567.2724	245.623
567.4323	244.7726
567.5922	244.4191
567.7521	238.5817
567.9119	238.7986
568.0718	244.7245
568.2317	237.9525
568.3915	236.799
568.5514	234.3546
568.7112	235.6742
568.871	231.6873
569.0309	238.1517
569.1907	242.0841
569.3505	244.4723
569.5103	248.3962
569.6701	245.1858
569.8299	239.2768
569.9897	240.4773
570.1495	234.7742
570.3092	242.3094
570.469	240.3345
570.6287	239.1003
570.7885	239.2404
570.9482	237.9219
571.108	242.9379
571.2677	245.0233
571.4274	240.2098
571.5871	244.6505
571.7468	242.0816
571.9066	242.538
572.0662	249.1203
572.2259	247.8015
572.3856	249.0116
572.5452	246.6378
572.7049	250.5027
572.8646	254.8011
573.0242	250.5991
573.1838	247.1862
573.3435	250.4357
573.5031	255.334
573.6627	249.2331
573.8223	255.501
573.9819	252.9702
574.1415	258.0522
574.3011	255.4705
574.4607	250.0915
574.6203	252.1859
574.7798	256.3133
574.9394	252.0695
575.099	256.6651
575.2585	247.7472
575.418	254.1947
575.5776	263.1178
575.7371	256.9388
575.8966	250.504
576.0562	254.7405
576.2156	252.2815
576.3751	246.9771
576.5346	249.7762
576.6941	249.1771
576.8536	258.7028
577.0131	258.8808
577.1725	260.3641
577.332	250.3024
577.4914	250.4762
577.6508	258.0652
577.8103	256.163
577.9697	256.0697
578.1291	253.5947
578.2885	250.0184
578.4479	251.393
578.6073	247.9749
578.7667	260.8985
578.9261	256.6678
579.0854	253.884
579.2448	260.5649
579.4042	252.1745
579.5635	252.3217
579.7229	251.6779
579.8822	257.307
580.0416	255.8132
580.2009	254.1736
580.3602	255.1439
580.5195	268.8102
580.6788	262.4836
580.8381	260.7143
580.9974	260.3214
581.1566	266.013
581.3159	262.2111
581.4752	261.3655
581.6345	270.0291
581.7937	265.1073
581.9529	258.0279
582.1122	267.4272
582.2714	262.7177
582.4306	269.3309
582.5898	266.9599
582.749	268.0318
582.9082	265.3536
583.0674	262.1295
583.2266	256.5085
583.3857	263.037
583.5449	267.4391
583.7041	268.8971
583.8633	265.6268
584.0224	271.8869
584.1815	261.8598
584.3407	259.9458
584.4998	265.1436
584.6589	265.9694
584.818	263.3491
584.9771	257.5592
585.1362	268.5128
585.2953	264.0702
585.4544	259.4513
585.6135	256.9998
585.7725	262.4934
585.9316	259.6512
586.0906	260.3137
586.2497	268.6538
586.4087	272.2152
586.5677	263.0932
586.7267	268.0111
586.8858	268.2695
587.0448	269.3959
587.2038	271.007
587.3628	265.7726
587.5218	270.481
587.6807	272.9942
587.8397	269.2441
587.9987	264.3961
588.1577	252.9863
588.3166	268.0146
588.4755	270.0026
588.6345	255.6019
588.7934	253.3163
588.9523	258.8299
589.1112	257.8416
589.2701	245.5566
589.429	247.2254
589.5879	244.2977
589.7468	247.7686
589.9056	247.3109
590.0645	253.8863
590.2234	262.8395
590.3822	267.8171
590.5411	265.42
590.6999	267.0781
590.8588	263.7248
591.0176	261.4932
591.1764	270.7987
591.3352	268.0634
591.494	259.9913
591.6528	267.9206
591.8116	267.2526
591.9703	264.035
592.1291	268.7574
592.2878	268.2212
592.4467	268.7323
592.6053	270.0556
592.7641	264.2489
592.9229	263.1809
593.0816	270.562
593.2403	264.5012
593.399	269.2858
593.5577	273.222
593.7164	270.2382
593.8751	274.943
594.0338	275.4661
594.1924	271.8702
594.3511	277.9222
594.5098	268.7618
594.6684	262.2235
594.8271	268.3996
594.9857	268.7929
595.1443	277.0855
595.303	274.0334
595.4615	275.5752
595.6202	273.2224
595.7787	279.0618
595.9374	272.618
596.0959	276.5711
596.2545	278.2422
596.4131	280.8025
596.5717	280.7357
596.7302	265.3862
596.8887	286.0551
597.0473	284.0408
597.2058	275.9796
597.3644	274.1331
597.5229	279.3542
597.6814	273.5748
597.8399	267.6953
597.9984	275.9711
598.1569	277.588
598.3154	277.9295
598.4738	280.6092
598.6323	276.0853
598.7908	278.0953
598.9492	273.8148
599.1076	285.0838
599.2661	284.4497
599.4245	281.7775
599.5829	281.6192
599.7413	278.2949
599.8997	281.493
600.0581	283.0939
600.2165	277.7025
600.3749	277.9697
600.5333	279.8143
600.6917	279.2629
600.85	275.4489
601.0084	281.8356
601.1667	288.0187
601.325	282.9113
601.4833	283.7426
601.6417	280.708
601.8	278.1974
601.9583	280.6664
602.1166	277.6382
602.2749	283.0012
602.4332	274.5451
602.5914	285.7668
602.7498	293.7217
602.908	288.6078
603.0662	294.0697
603.2245	288.9931
603.3828	287.6954
603.541	290.94
603.6992	281.9062
603.8574	287.9743
604.0156	287.3513
604.1738	288.8337
604.332	296.9896
604.4902	287.4482
604.6484	292.0544
604.8065	294.9534
604.9647	287.1183
605.1229	287.1671
605.281	286.7082
605.4391	283.1238
605.5973	285.585
605.7554	284.885
605.9135	285.0146
606.0717	285.5925
606.2297	288.3935
606.3878	289.3336
606.5459	285.2126
606.704	282.2508
606.8621	284.692
607.0201	278.1934
607.1782	287.7872
607.3362	295.0504
607.4943	286.9147
607.6523	287.5052
607.8104	287.6179
607.9684	289.7452
608.1264	285.2214
608.2844	281.1767
608.4424	282.0749
608.6003	288.9177
608.7584	284.0737
608.9163	288.3423
609.0743	285.2878
609.2322	282.8046
609.3902	292.4256
609.5482	285.7538
609.7061	283.6593
609.864	292.5229
610.0219	281.571
610.1798	279.7934
610.3377	286.288
610.4956	279.2619
610.6535	294.1832
610.8114	287.851
610.9693	282.3707
611.1271	281.84
611.285	288.0049
611.4429	284.7714
611.6007	290.4303
611.7585	286.8138
611.9164	281.8564
612.0742	283.2029
612.232	278.1747
612.3898	278.6882
612.5476	278.6437
612.7054	280.7477
612.8632	286.808
613.0209	290.7057
613.1787	286.5132
613.3365	286.2585
613.4942	284.7484
613.652	282.9788
613.8097	271.0158
613.9674	270.9415
614.1252	275.9234
614.2829	279.8609
614.4406	282.5667
614.5983	287.1902
614.756	286.6455
614.9136	282.4705
615.0714	284.7476
615.229	284.0083
615.3867	283.8713
615.5443	278.8757
615.702	278.5735
615.8596	284.356
616.0172	276.0075
616.1748	271.6744
616.3325	268.4563
616.4901	273.8644
616.6476	271.137
616.8052	273.2298
616.9628	279.7044
617.1204	266.002
617.278	269.5502
617.4355	277.4032
617.5931	275.3191
617.7506	279.2517
617.9081	287.2616
618.0657	280.7762
618.2232	286.0126
618.3807	288.7278
618.5382	283.8512
618.6957	279.9626
618.8532	273.4358
619.0107	278.7655
619.1682	283.3
619.3256	279.4867
619.4831	284.3182
619.6406	288.1154
619.798	280.8377
619.9554	283.234
620.1129	281.0712
620.2703	281.7788
620.4277	278.231
620.5851	278.4428
620.7425	280.5919
620.8998	284.2395
621.0573	279.0253
621.2146	274.4488
621.372	270.4323
621.5294	281.0367
621.6867	273.6262
621.8441	272.817
622.0013	271.5613
622.1587	268.7266
622.316	275.0995
622.4733	279.3152
622.6306	280.1949
622.7879	281.9432
622.9452	272.8842
623.1025	274.8729
623.2598	271.7899
623.4171	279.2072
623.5743	279.1991
623.7316	275.123
623.8888	271.9535
624.046	276.8655
624.2032	273.6835
624.3605	272.9899
624.5176	262.0488
624.6749	273.7298
624.8321	279.6569
624.9893	273.0066
625.1464	272.2045
625.3036	273.0683
625.4608	268.9015
625.6179	266.8821
625.7751	267.9998
625.9322	264.2992
626.0894	271.8884
626.2465	268.481
626.4036	274.8197
626.5607	272.0361
626.7178	283.8519
626.8749	276.7854
627.032	272.2375
627.189	267.0579
627.3461	276.7668
627.5032	267.3792
627.6602	271.9321
627.8173	261.0416
627.9743	258.2997
628.1313	256.8559
628.2884	257.0594
628.4454	270.5519
628.6024	271.7523
628.7594	265.6305
628.9164	266.8471
629.0734	264.161
629.2303	266.2857
629.3873	267.7889
629.5443	266.1513
629.7012	260.2531
629.8582	270.8615
630.0151	264.1606
630.172	257.9623
630.3289	261.4946
630.4858	261.7865
630.6428	264.5039
630.7996	272.687
630.9565	276.3343
631.1134	266.2429
631.2703	268.0256
631.4272	267.6145
631.584	265.5179
631.7408	263.9185
631.8977	260.8087
632.0546	263.8195
632.2114	262.5878
632.3682	267.8776
632.525	267.174
632.6818	268.1779
632.8386	273.2744
632.9954	272.1279
633.1522	268.4134
633.3089	264.8169
633.4657	267.3894
633.6224	264.3207
633.7792	264.9037
633.9359	263.1021
634.0927	265.8721
634.2494	271.8292
634.4061	261.688
634.5628	256.8044
634.7195	259.4902
634.8762	265.8503
635.0329	263.3758
635.1895	262.6765
635.3462	258.8772
635.5029	262.2329
635.6595	259.4943
635.8162	270.373
635.9728	265.0168
636.1295	262.3482
636.2861	262.6576
636.4427	267.1409
636.5992	264.0683
636.7559	270.1089
636.9124	266.8052
637.069	267.9715
637.2256	259.2632
637.3821	271.1382
637.5387	266.6415
637.6953	269.6319
637.8518	261.9721
638.0084	268.1142
638.1649	265.6311
638.3214	263.2384
638.4779	267.3264
638.6344	265.4629
638.7909	263.6249
638.9474	271.6495
639.1038	266.6653
639.2603	253.6764
639.4167	255.3006
639.5732	250.574
639.7297	254.1051
639.8861	255.0131
640.0425	252.6778
640.199	255.8638
640.3553	259.6809
640.5118	265.8327
640.6682	263.235
640.8245	254.282
640.981	259.4531
641.1373	254.7821
641.2936	252.5994
641.45	255.8716
641.6064	255.836
641.7627	251.0527
641.9191	253.2001
642.0754	250.1519
642.2317	259.7375
642.388	254.7334
642.5443	255.5472
642.7006	257.5412
642.8569	256.326
643.0131	256.0869
643.1694	255.7125
643.3257	257.4732
643.4819	249.0077
643.6382	256.0439
643.7944	248.899
643.9506	251.4964
644.1069	252.0739
644.2631	249.8642
644.4193	251.7264
644.5754	250.4633
644.7316	252.6074
644.8878	247.4502
645.044	251.0884
645.2002	256.2208
645.3563	247.1967
645.5125	243.596
645.6686	241.9376
645.8248	244.5043
645.9809	243.682
646.137	243.2842
646.2931	239.5961
646.4492	246.2306
646.6053	244.8846
646.7614	243.9337
646.9174	242.3947
647.0735	242.7778
647.2296	245.7455
647.3856	239.3853
647.5417	242.2749
647.6977	245.5952
647.8537	244.6179
648.0098	235.8431
648.1658	244.9135
648.3218	243.0215
648.4777	238.6476
648.6337	244.2309
648.7897	238.9742
648.9457	240.2742
649.1016	234.8862
649.2576	235.5499
649.4135	231.0985
649.5695	224.696
649.7254	231.2866
649.8813	236.7248
650.0372	245.2597
650.1932	240.8916
650.3491	242.2943
650.5049	244.7348
650.6608	258.31
650.8167	251.3501
650.9725	245.5556
651.1284	248.5229
651.2842	243.3105
651.4401	243.9386
651.5959	236.6122
651.7518	238.463
651.9076	241.3961
652.0634	239.3328
652.2192	238.052
652.3749	234.839
652.5308	239.1885
652.6865	239.3761
652.8423	239.2027
652.998	240.1425
653.1538	237.4321
653.3096	237.7969
653.4653	239.2267
653.621	244.5
653.7767	242.6012
653.9324	240.8917
654.0881	238.1346
654.2438	237.623
654.3995	237.1803
654.5552	234.1497
654.7109	232.795
654.8665	234.3647
655.0222	233.2713
655.1778	230.5098
655.3334	233.259
655.4891	235.1406
655.6447	227.1215
655.8003	229.4499
655.9559	219.502
656.1115	210.4427
656.2671	190.8192
656.4227	189.8468
656.5782	203.4191
656.7338	219.1962
656.8893	216.2425
657.0449	213.6171
657.2004	227.9347
657.356	226.7482
657.5115	228.4376
657.667	227.8427
657.8225	232.8722
657.978	239.3134
658.1335	238.2856
658.289	228.0531
658.4445	227.3176
658.5999	232.6891
658.7554	241.9533
658.9108	232.5968
659.0663	232.4775
659.2217	235.5627
659.3771	229.8795
659.5325	228.9977
659.6879	227.0195
659.8433	239.1421
659.9987	232.8631
660.1541	234.9948
660.3095	234.5078
660.4648	231.828
660.6202	235.6322
660.7756	234.9776
660.9309	240.7526
661.0862	239.0072
661.2416	230.6316
661.3969	238.2566
661.5522	236.5686
661.7075	235.78
661.8628	236.1559
662.0181	236.6117
662.1733	230.3625
662.3286	231.4256
662.4839	233.1454
662.6391	238.8923
662.7944	237.2202
662.9496	234.0094
663.1048	225.8582
663.26	236.2341
663.4152	233.0628
663.5704	239.5507
663.7256	235.944
663.8808	231.3341
664.036	234.4453
664.1912	238.8434
664.3463	228.6113
664.5015	227.927
664.6566	230.0892
664.8118	231.2718
664.9669	229.909
665.122	240.3685
665.2771	234.0211
665.4322	233.0601
665.5873	238.3137
665.7424	237.0235
665.8975	235.6594
666.0526	233.53
666.2076	228.4223
666.3627	231.0419
666.5177	234.6383
666.6727	234.2399
666.8278	231.8023
666.9828	234.0423
667.1378	230.1898
667.2928	232.9254
667.4478	230.524
667.6028	221.7532
667.7578	226.7936
667.9127	230.6978
668.0677	225.127
668.2226	225.1942
668.3776	231.0338
668.5325	238.2168
668.6874	239.5045
668.8423	238.3204
668.9973	230.4494
669.1522	229.5606
669.3071	229.9118
669.4619	233.8375
669.6168	228.5744
669.7717	229.6055
669.9265	224.4229
670.0814	222.3008
670.2362	230.0957
670.3911	221.97
670.5459	223.0309
670.7007	225.8702
670.8555	221.5647
671.0103	222.5485
671.1651	220.0601
671.3199	222.6654
671.4747	227.2025
671.6295	220.0896
671.7842	220.0699
671.939	225.4683
672.0937	226.1419
672.2484	229.4748
672.4031	221.0184
672.5579	217.1127
672.7126	227.2042
672.8673	225.3628
673.022	223.73
673.1767	223.1627
673.3314	228.1894
673.486	226.7658
673.6407	228.0244
673.7953	227.8056
673.95	228.1345
674.1046	223.3801
674.2592	223.9902
674.4138	221.3846
674.5684	227.7036
674.723	228.6482
674.8776	219.9503
675.0322	218.0891
675.1868	223.1477
675.3414	224.1364
675.4959	226.671
675.6505	224.6514
675.805	219.8885
675.9595	221.6204
676.1141	217.805
676.2686	221.2514
676.4231	227.2924
676.5776	218.2896
676.7321	212.2737
676.8866	214.7273
677.041	213.7104
677.1955	208.6975
677.35	219.3541
677.5044	213.7134
677.6589	216.5043
677.8133	224.255
677.9677	212.155
678.1221	207.2941
678.2766	211.9144
678.4309	210.4034
678.5853	211.1428
678.7397	211.7517
678.8941	210.661
679.0485	211.0531
679.2028	213.4166
679.3571	215.2866
679.5115	206.6154
679.6658	209.5559
679.8201	213.4497
679.9744	204.2514
680.1288	212.3823
680.2831	217.9413
680.4373	217.036
680.5916	208.8005
680.7459	202.56
680.9001	206.7877
681.0544	208.905
681.2087	206.2852
681.3629	206.6298
681.5171	206.3875
681.6713	207.7302
681.8256	214.6061
681.9797	206.5078
682.134	200.8109
682.2881	204.4933
682.4423	204.2485
682.5965	201.7923
682.7507	206.5679
682.9048	202.2133
683.059	204.4324
683.2131	207.8786
683.3672	210.4188
683.5213	204.5563
683.6754	202.9428
683.8295	203.803
683.9836	199.0742
684.1377	199.7313
684.2918	198.5196
684.4459	203.9258
684.5999	193.9672
684.754	198.174
684.908	204.5369
685.062	201.8279
685.2161	194.5735
685.3701	197.3627
685.5241	200.4189
685.6781	206.5832
685.8321	203.7706
685.9861	196.2706
686.14	195.9405
686.294	196.4042
686.4479	193.3072
686.6019	191.8007
686.7559	185.103
686.9098	165.0611
687.0637	151.8246
687.2176	153.7159
687.3715	169.4483
687.5254	170.1119
687.6793	176.9792
687.8332	178.8322
687.9871	179.498
688.1409	184.3535
688.2947	186.6065
688.4486	191.4357
688.6024	182.7071
688.7563	180.7129
688.9101	178.0444
689.0639	178.8241
689.2177	180.2853
689.3715	181.0026
689.5253	174.4279
689.6791	183.0647
689.8328	181.562
689.9866	178.0201
690.1403	181.8584
690.2941	181.0404
690.4478	182.036
690.6015	183.3793
690.7552	181.1196
690.9089	184.7143
691.0626	177.823
691.2164	187.9924
691.37	182.2316
691.5237	182.4383
691.6774	183.0167
691.831	188.211
691.9847	187.5994
692.1383	185.3664
692.2919	191.366
692.4456	186.7296
692.5992	184.6609
692.7527	185.2395
692.9064	179.2051
693.0599	178.5459
693.2136	180.6563
693.3671	179.3391
693.5207	180.4775
693.6742	175.931
693.8278	175.9135
693.9813	177.633
694.1348	176.2437
694.2883	174.5993
694.4418	176.4119
694.5953	185.7976
694.7488	188.0573
694.9023	180.6333
695.0558	176.6805
695.2093	180.2845
695.3627	186.167
695.5162	179.2781
695.6696	175.6939
695.8231	180.6094
695.9764	182.6896
696.1299	181.2986
696.2833	184.5508
696.4367	179.3784
696.5901	180.8669
696.7435	181.2856
696.8968	182.6319
697.0502	187.0431
697.2036	191.4181
697.3569	180.8359
697.5102	193.6927
697.6635	182.79
697.8168	181.0782
697.9702	178.1015
698.1235	181.1358
698.2768	178.6931
698.4301	181.5398
698.5833	185.6512
698.7366	178.6262
698.8898	180.7483
699.0431	175.6919
699.1964	176.7357
699.3495	183.9594
699.5028	188.1943
699.656	181.5194
699.8092	177.5075
699.9624	182.2094
700.1156	173.2
700.2688	172.8238
700.4219	168.6168
700.5751	171.7078
700.7283	175.5677
700.8814	177.9254
701.0345	174.4622
701.1877	177.8554
701.3408	184.0616
701.4939	183.1536
701.647	178.2741
701.8001	176.5632
701.9532	177.7023
702.1063	175.3209
702.2593	175.5532
702.4124	176.9688
702.5654	176.8355
702.7184	179.1596
702.8715	180.0566
703.0245	174.6585
703.1776	178.1867
703.3305	183.404
703.4835	174.5557
703.6365	176.4302
703.7895	177.3072
703.9424	175.7754
704.0954	183.4288
704.2484	181.3481
704.4013	186.5131
704.5543	190.6393
704.7072	180.1725
704.8601	176.0841
705.013	171.6721
705.1659	174.3862
705.3188	176.6782
705.4717	174.1868
705.6246	177.807
705.7774	177.5915
705.9303	178.0961
706.0831	181.4292
706.236	179.3832
706.3888	182.1235
706.5416	180.2673
706.6944	177.0477
706.8472	170.1063
707	173.7019
707.1528	179.656
707.3056	179.5125
707.4583	175.0782
707.6111	177.8636
707.7639	175.7225
707.9166	173.1908
708.0693	170.3928
708.222	177.1396
708.3748	175.0778
708.5275	177.4815
708.6802	178.8674
708.8328	176.2103
708.9855	173.8832
709.1382	172.6506
709.2909	173.5359
709.4435	169.687
709.5962	173.6381
709.7488	182.8134
709.9014	178.7572
710.054	176.0641
710.2067	177.1005
710.3593	169.6208
710.5118	175.922
710.6644	175.5206
710.817	178.1234
710.9695	174.8705
711.1221	174.5228
711.2747	170.6451
711.4272	177.4481
711.5797	173.3707
711.7322	171.3256
711.8848	173.3201
712.0373	171.9578
712.1898	167.4105
712.3422	171.9609
712.4948	176.9912
712.6472	173.3477
712.7996	175.6606
712.9521	170.8935
713.1046	173.5271
713.257	171.776
713.4094	172.6692
713.5618	178.0466
713.7142	175.1804
713.8666	161.7579
714.019	164.8642
714.1714	167.9523
714.3237	167.6918
714.4761	167.8786
714.6285	166.5286
714.7808	172.1234
714.9331	157.5809
715.0854	163.4904
715.2378	161.6438
715.3901	167.2515
715.5424	166.4512
715.6947	167.4238
715.8469	172.7793
715.9992	165.7673
716.1515	166.2345
716.3037	169.5361
716.456	166.2455
716.6082	164.8839
716.7604	161.4254
716.9127	154.8867
717.0649	156.015
717.2171	149.5028
717.3693	144.0382
717.5214	147.0303
717.6736	146.7589
717.8258	153.8938
717.978	145.9817
718.1301	147.8037
718.2822	147.7299
718.4344	140.3751
718.5865	137.8314
718.7386	137.2255
718.8907	143.9244
719.0428	152.3254
719.1949	147.0869
719.3469	141.8577
719.499	147.1146
719.6511	141.4889
719.8031	147.7115
719.9551	147.2241
720.1072	144.1467
720.2592	140.4127
720.4112	136.7592
720.5632	144.0895
720.7152	140.4697
720.8672	145.7375
721.0192	155.5306
721.1711	152.0863
721.3231	151.2977
721.475	158.0758
721.627	156.952
721.7789	154.3123
721.9308	160.4959
722.0828	160.6042
722.2347	155.2887
722.3866	162.7073
722.5385	155.1442
722.6903	149.3115
722.8422	160.5863
722.9941	156.1395
723.1459	152.5818
723.2977	146.561
723.4496	145.3146
723.6014	141.7205
723.7532	144.5913
723.905	147.2078
724.0568	145.1686
724.2086	143.3265
724.3604	142.0774
724.5121	140.6857
724.6639	146.8875
724.8157	143.2463
724.9674	148.7002
725.1191	142.8701
725.2709	141.6843
725.4226	145.1419
725.5743	145.684
725.726	148.819
725.8777	149.2322
726.0294	145.2726
726.181	140.4706
726.3327	143.6272
726.4844	144.2144
726.636	147.7472
726.7877	141.7935
726.9393	145.7191
727.0909	150.1515
727.2425	145.2773
727.3941	143.3209
727.5457	141.1504
727.6973	137.5444
727.8488	133.1465
728.0004	139.4472
728.1519	146.6577
728.3035	146.9017
728.455	151.6844
728.6066	147.2875
728.7581	141.5809
728.9095	140.4885
729.0611	133.4815
729.2126	130.3548
729.364	137.2066
729.5155	138.4456
729.667	141.1665
729.8184	148.8435
729.9698	142.9816
730.1213	142.8363
730.2727	139.5955
730.4241	134.8834
730.5756	141.9318
730.7269	140.7024
730.8784	141.1786
731.0297	142.5191
731.1811	147.3806
731.3325	140.1003
731.4838	141.1259
731.6351	142.853
731.7865	146.8898
731.9378	144.0344
732.0891	151.5825
732.2404	151.6215
732.3917	150.2228
732.543	142.1392
732.6943	146.625
732.8456	145.0155
732.9968	144.2655
733.1481	151.6745
733.2993	152.1655
733.4506	154.6122
733.6018	150.6464
733.753	149.9031
733.9042	146.4622
734.0554	152.7674
734.2066	156.3935
734.3578	150.986
734.509	150.3611
734.6602	144.8458
734.8113	145.7979
734.9624	152.091
735.1136	152.3165
735.2647	146.8016
735.4158	147.3192
735.5669	145.4717
735.718	148.4808
735.8691	141.3852
736.0201	146.7516
736.1713	149.8475
736.3223	146.4928
736.4733	147.5034
736.6244	143.4962
736.7755	141.0555
736.9265	146.8168
737.0775	145.9408
737.2285	146.4677
737.3795	148.3818
737.5305	154.2839
737.6815	152.3468
737.8324	153.9425
737.9834	146.5151
738.1343	145.2103
738.2853	142.5883
738.4362	146.4704
738.5871	145.4297
738.738	141.3167
738.8889	144.2012
739.0399	141.4681
739.1907	145.8831
739.3416	141.287
739.4925	146.003
739.6433	140.814
739.7942	143.2803
739.945	145.6821
740.0958	149.7582
740.2467	142.9957
740.3975	141.5318
740.5483	144.8489
740.6991	149.7892
740.8499	139.806
741.0007	137.2134
741.1514	141.6931
741.3022	142.9369
741.4529	141.7787
741.6036	140.073
741.7544	141.2718
741.9051	150.6028
742.0558	152.4397
742.2065	143.7807
742.3572	140.4922
742.5079	137.9964
742.6586	143.1129
742.8093	148.763
742.9599	142.7717
743.1105	142.5967
743.2612	142.9284
743.4118	148.6877
743.5624	150.0414
743.7131	149.9368
743.8636	143.9992
744.0142	142.9288
744.1648	134.5927
744.3154	137.5058
744.4659	138.8331
744.6165	142.0824
744.767	139.4781
744.9176	147.3432
745.0681	145.3283
745.2186	145.7619
745.3691	139.6296
745.5197	140.383
745.6702	144.6549
745.8206	142.4653
745.9711	140.1203
746.1215	137.7032
746.272	136.8605
746.4224	138.1452
746.5729	141.8378
746.7233	136.7406
746.8737	132.8313
747.0241	138.4269
747.1745	133.2016
747.3249	139.6087
747.4753	140.0615
747.6257	140.1184
747.776	137.5524
747.9264	135.452
748.0767	143.083
748.2271	137.0232
748.3774	135.7502
748.5276	139.0498
748.678	132.2322
748.8282	132.3481
748.9786	138.7477
749.1288	135.6255
749.2791	128.4842
749.4294	132.4973
749.5796	136.019
749.7299	137.3968
749.8801	130.1696
750.0303	129.1862
750.1805	131.401
750.3307	126.6612
750.4809	131.2322
750.6311	129.4582
750.7813	133.6101
750.9314	129.372
751.0816	132.3875
751.2318	133.0713
751.3818	129.9238
751.532	128.953
751.6821	129.9236
751.8322	130.0903
751.9823	132.0057
752.1324	128.8575
752.2825	123.4145
752.4326	125.4855
752.5826	124.9912
752.7327	124.275
752.8827	127.3566
753.0327	125.2787
753.1827	134.8683
753.3328	134.5322
753.4828	125.7567
753.6328	124.6293
753.7828	127.8935
753.9327	127.2763
754.0827	126.2146
754.2327	128.5156
754.3826	124.8748
754.5325	127.8748
754.6825	129.8327
754.8324	130.9825
754.9823	123.337
755.1322	121.8017
755.2821	121.6452
755.432	126.6607
755.5818	126.7119
755.7318	125.1412
755.8816	127.0596
756.0314	126.8492
756.1813	131.3592
756.3311	124.8896
756.4809	121.7583
756.6307	118.5342
756.7805	118.7471
756.9303	124.1917
757.0801	122.108
757.2299	117.8393
757.3796	114.8438
757.5294	112.733
757.6791	121.4815
757.8289	118.4284
757.9786	119.8892
758.1283	116.7893
758.278	114.6445
758.4277	120.4131
758.5773	112.6332
758.7271	111.1378
758.8767	109.6193
759.0264	119.2156
759.176	112.4167
759.3256	108.0163
759.4753	99.9409
759.6249	83.75964
759.7745	77.34284
759.9241	67.41449
760.0737	72.10995
760.2233	63.20749
760.3729	64.01843
760.5224	64.041
760.6719	65.091
760.8215	60.80376
760.971	60.96471
761.1205	62.10907
761.2701	65.7213
761.4196	75.7532
761.5691	82.47682
761.7186	90.86508
761.868	92.37223
762.0175	95.60464
762.167	93.58872
762.3164	93.43136
762.4659	83.39916
762.6153	77.38979
762.7647	79.63017
762.9141	79.36523
763.0635	75.01722
763.2129	76.57629
763.3623	78.20019
763.5117	79.88876
763.661	80.00282
763.8104	80.19019
763.9597	85.00993
764.1091	84.00907
764.2584	84.54189
764.4077	87.36286
764.557	83.31573
764.7063	86.05613
764.8556	86.36315
765.0049	88.58928
765.1541	92.00983
765.3034	88.4091
765.4526	87.81144
765.6019	86.88687
765.7511	95.64547
765.9003	94.07991
766.0496	90.11249
766.1987	95.11671
766.348	97.24377
766.4971	94.40431
766.6463	89.95393
766.7955	99.00765
766.9446	106.2326
767.0938	105.1994
767.2429	104.9749
767.392	99.96689
767.5411	103.4654
767.6902	99.45276
767.8394	100.3737
767.9884	98.10732
768.1375	104.3198
768.2866	103.1265
768.4356	105.0642
768.5847	97.91131
768.7337	97.71439
768.8828	101.3787
769.0317	101.91
769.1808	99.24678
769.3298	98.96194
769.4788	100.2379
769.6277	102.3628
769.7767	100.9162
769.9257	99.91377
770.0746	98.52679
770.2236	96.30052
770.3725	105.5733
770.5214	104.7113
770.6703	106.9593
770.8193	103.1439
770.9681	103.7293
771.1171	98.18866
771.2659	96.60452
771.4148	97.269
771.5637	97.34409
771.7125	96.05193
771.8613	102.8771
772.0101	107.1124
772.159	97.97845
772.3078	98.70725
772.4566	104.0692
772.6054	101.6595
772.7542	100.798
772.903	96.68427
773.0517	97.73695
773.2004	99.74868
773.3492	99.37817
773.4979	95.79662
773.6467	98.86773
773.7953	99.94044
773.944	99.45432
774.0928	96.62718
774.2415	97.01128
774.3901	98.50201
774.5388	99.5471
774.6874	98.98216
774.8361	95.25775
774.9847	97.47691
775.1334	99.40205
775.282	99.86162
775.4305	99.21539
775.5792	96.97938
775.7277	95.90593
775.8763	98.8661
776.0249	97.50047
776.1735	97.62887
776.322	100.7711
776.4705	93.14834
776.6191	93.50749
776.7676	101.2693
776.9161	103.5088
777.0646	96.94321
777.2131	95.881
777.3616	90.67165
777.5101	87.33812
777.6585	94.94279
777.8069	94.41164
777.9554	93.5891
778.1038	93.92124
778.2523	91.54697
778.4007	92.69734
778.5491	94.73682
778.6974	93.38251
778.8459	92.22007
778.9942	92.44519
779.1426	91.16736
779.291	93.39163
779.4393	97.65748
779.5876	98.83814
779.736	90.8932
779.8843	95.66284
780.0326	91.03146
780.1809	90.03597
780.3292	89.29865
780.4775	84.26426
780.6257	93.69412
780.774	95.4364
780.9222	93.55696
781.0704	92.08437
781.2187	90.05183
781.3669	91.22806
781.5151	97.46252
781.6633	90.78579
781.8115	92.07162
781.9597	94.73825
782.1078	97.41647
782.256	96.5347
782.4042	91.42733
782.5523	86.40022
782.7004	93.25856
782.8486	88.40424
782.9967	91.44305
783.1448	92.56863
783.2929	88.48565
783.441	87.45985
783.5891	87.41485
783.7371	87.57748
783.8851	84.1699
784.0332	87.64008
784.1812	92.15445
784.3293	92.407
784.4773	90.5
784.6253	85.96406
784.7733	84.90694
784.9213	84.60036
785.0692	87.46743
785.2172	86.92247
785.3652	86.08162
785.5131	80.42999
785.6611	82.10063
785.809	92.14622
785.9569	91.73008
786.1048	91.3793
786.2527	85.64941
786.4006	87.68194
786.5485	84.21642
786.6964	82.85429
786.8442	80.27925
786.9921	85.65316
787.1399	82.17013
787.2877	84.41251
787.4355	86.90038
787.5833	78.59052
787.7311	79.94292
787.8789	82.23712
788.0267	86.87448
788.1745	88.75988
788.3223	89.39384
788.47	82.67096
788.6177	86.72308
788.7654	79.38246
788.9132	83.05975
789.0609	86.70831
789.2086	85.4379
789.3563	84.96358
789.504	86.10339
789.6517	75.90426
789.7993	76.65481
789.947	78.62375
790.0946	78.78172
790.2422	85.64007
790.3898	83.0694
790.5375	81.01648
790.6851	79.79884
790.8326	78.69995
790.9802	81.6662
791.1278	87.43457
791.2754	88.31722
791.423	81.76498
791.5705	85.96259
791.718	86.14845
791.8655	79.52374
792.0131	79.27727
792.1606	82.72025
792.308	82.14558
792.4556	78.62959
792.603	80.03552
792.7505	81.31946
792.8979	80.43128
793.0454	75.66517
793.1928	80.07391
793.3403	80.43798
793.4877	81.18244
793.6351	79.48195
793.7825	78.255
793.9299	76.65894
794.0772	84.15939
794.2246	80.04314
794.3719	82.72424
794.5193	77.10553
794.6666	77.2989
794.814	78.23804
794.9613	79.17873
795.1086	81.48244
795.2559	79.12467
795.4032	79.0737
795.5505	80.26649
795.6978	77.70958
795.845	71.88816
795.9922	68.32458
796.1395	71.96307
796.2867	75.03462
796.4339	77.86111
796.5811	74.96169
796.7283	78.53007
796.8755	81.42139
797.0227	70.70502
797.1699	77.93542
797.317	78.48541
797.4642	77.01782
797.6113	77.98084
797.7584	76.27856
797.9056	75.96311
798.0527	76.29166
798.1998	81.57965
798.3469	72.12505
798.494	74.8203
798.641	77.42516
798.7881	75.81477
798.9351	74.70265
799.0822	70.52143
799.2292	74.19025
799.3762	74.79742
799.5232	75.03464
799.6702	80.19624
799.8172	71.32251
799.9642	72.64058
800.1111	70.28614
800.2581	67.74692
800.4051	70.7894
800.552	72.92786
800.6989	75.99564
800.8458	70.1162
800.9927	67.37939
801.1396	67.0752
801.2866	72.61804
801.4334	77.32133
801.5803	76.41132
801.7272	68.50909
801.874	71.42385
802.0209	70.87959
802.1677	71.68995
802.3145	71.05111
802.4613	69.41253
802.6081	70.43871
802.7549	69.68452
802.9017	72.91043
803.0485	71.79412
803.1952	71.47862
803.342	68.40479
803.4887	71.0727
803.6354	70.49664
803.7822	71.60814
803.9289	69.75352
804.0756	63.5884
804.2223	64.84772
804.369	60.70921
804.5156	69.33759
804.6623	70.42409
804.8089	65.44012
804.9556	64.84846
805.1022	68.60624
805.2488	69.81364
805.3954	67.15509
805.542	73.97959
805.6886	68.6682
805.8352	68.32418
805.9818	64.27258
806.1283	65.30984
806.2749	72.29203
806.4214	67.44483
806.5679	62.38829
806.7145	70.80326
806.861	67.73669
807.0074	68.71999
807.154	61.83035
807.3004	66.34327
807.4469	69.31944
807.5934	66.08567
807.7398	69.40704
807.8862	66.31248
808.0327	65.45467
808.1791	62.46916
808.3255	58.49523
808.4719	62.73171
808.6183	63.39028
808.7647	66.83739
808.9111	63.70183
809.0574	65.94363
809.2037	65.7524
809.3501	63.39462
809.4965	70.5324
809.6428	61.5509
809.7891	63.90874
809.9354	65.49796
810.0817	62.79853
810.2279	65.31702
810.3742	68.30882
810.5204	67.17312
810.6667	61.58156
810.8129	57.92006
810.9592	62.20692
811.1054	64.23823
811.2516	62.41826
811.3978	61.16177
811.5439	66.19895
811.6901	70.56296
811.8363	60.25625
811.9825	57.74971
812.1286	63.28654
812.2748	60.4248
812.4209	54.03495
812.567	57.39966
812.7131	64.16139
812.8592	61.3759
813.0053	57.11147
813.1514	55.56438
813.2974	58.16661
813.4435	59.66603
813.5895	59.72923
813.7356	60.30031
813.8816	59.515
814.0276	57.58682
814.1736	57.66283
814.3196	57.6239
814.4656	54.45484
814.6116	56.30572
814.7576	57.67118
814.9035	54.21218
815.0494	51.9777
815.1954	50.0281
815.3413	53.35369
815.4872	53.21988
815.6331	55.74304
815.779	54.37827
815.9249	50.63504
816.0707	52.62776
816.2166	49.87619
816.3625	49.37105
816.5083	47.51329
816.6542	55.42214
816.8	56.49294
816.9458	53.67303
817.0916	51.31792
817.2374	56.4539
817.3832	58.10271
817.5289	55.50446
817.6747	57.00106
817.8204	55.47971
817.9662	52.85987
818.1119	54.01761
818.2576	45.59438
818.4034	56.03529
818.5491	50.54592
818.6948	50.49795
818.8405	53.98177
818.9861	56.60163
819.1318	53.38158
819.2774	50.35566
819.423	55.47554
819.5687	54.29191
819.7143	51.72118
819.8599	50.77416
820.0055	52.3508
820.1511	53.77604
820.2967	55.11484
820.4422	52.40367
820.5878	52.42794
820.7333	52.1398
820.8788	53.85936
821.0244	55.27569
821.1699	51.3919
821.3154	53.65639
821.4609	54.21592
821.6064	55.98672
821.7519	54.79488
821.8973	50.07418
822.0428	47.6151
822.1882	54.35221
822.3337	50.81486
822.4791	51.27557
822.6245	49.27193
822.7699	46.30919
822.9153	44.94047
823.0607	48.10103
823.2061	50.98153
823.3514	44.77618
823.4968	45.83804
823.6422	50.23752
823.7875	51.81257
823.9328	56.04675
824.0781	54.55247
824.2234	50.32706
824.3687	50.38127
824.514	55.33384
824.6592	51.87353
824.8045	54.15974
824.9498	52.87322
825.095	57.34852
825.2402	51.2275
825.3854	53.59865
825.5306	48.87181
825.6758	52.26193
825.821	48.7709
825.9662	46.87362
826.1114	46.63096
826.2565	49.56514
826.4017	44.17432
826.5468	48.28002
826.692	51.48027
826.837	50.54818
826.9822	52.75795
827.1273	47.40276
827.2723	49.64629
827.4174	52.96643
827.5625	45.99019
827.7075	46.82503
827.8526	49.59283
827.9976	47.9879
828.1426	43.20902
828.2877	50.57743
828.4327	54.69173
828.5776	50.64531
828.7227	41.80718
828.8676	43.85498
829.0126	47.44582
829.1575	44.28007
829.3024	47.6002
829.4474	51.73228
829.5923	52.47059
829.7372	48.93304
829.8821	48.00754
830.027	45.22958
830.1719	48.53121
830.3168	46.92683
830.4616	46.95645
830.6064	43.0528
830.7513	43.29945
830.8961	49.28281
831.041	51.46634
831.1857	47.2623
831.3306	50.52235
831.4753	52.86414
831.6201	49.27586
831.7649	42.74719
831.9096	50.70741
832.0544	48.44894
832.1991	45.47086
832.3438	43.85464
832.4885	44.8675
832.6332	48.01704
832.778	48.09716
832.9226	42.29657
833.0673	46.38519
833.2119	44.59915
833.3566	47.72565
833.5012	51.95619
833.6459	48.09805
833.7905	46.83692
833.9351	49.57569
834.0797	40.56181
834.2243	39.91866
834.3688	45.61616
834.5134	49.90563
834.658	46.19662
834.8026	46.30254
834.9471	47.02619
835.0916	46.12817
835.2361	41.08174
835.3806	44.79842
835.5251	46.62565
835.6696	41.58249
835.8141	48.72343
835.9586	46.94209
836.103	47.43062
836.2474	50.24379
836.3918	45.64903
836.5363	47.04044
836.6807	47.51632
836.8251	49.5938
836.9695	46.86453
837.1138	44.01258
837.2582	51.05644
837.4026	46.59251
837.5469	45.99158
837.6913	48.84981
837.8356	50.0617
837.9799	47.72677
838.1242	47.332
838.2686	44.8409
838.4128	45.26328
838.5571	47.59689
838.7014	46.68227
838.8456	44.39452
838.9899	42.19664
839.1341	46.60981
839.2783	46.69911
839.4225	47.48959
839.5667	42.15588
839.7109	49.47079
839.8551	39.03318
839.9993	46.01168
840.1434	43.94596
840.2876	41.28734
840.4317	41.28772
840.5759	45.75996
840.72	42.72137
840.8641	47.14223
841.0082	44.7594
841.1523	42.71705
841.2963	39.84622
841.4404	44.53696
841.5845	41.44769
841.7285	44.20439
841.8726	42.87032
842.0165	45.22696
842.1606	47.09968
842.3046	40.87192
842.4485	41.92595
842.5925	44.00195
842.7365	42.25623
842.8805	41.25508
843.0244	42.53537
843.1684	41.14389
843.3123	45.91145
843.4562	50.1852
843.6002	44.99998
843.744	42.12324
843.8879	44.18737
844.0318	45.41323
844.1757	47.51637
844.3195	44.7083
844.4634	48.37721
844.6072	48.14547
844.751	47.07602
844.8948	42.25379
845.0386	43.41327
845.1824	43.97804
845.3262	45.07786
845.47	44.56
845.6138	41.16299
845.7575	41.71939
845.9012	49.17563
846.045	47.06712
846.1887	43.78218
846.3324	48.48879
846.4761	46.93137
846.6198	40.44718
846.7635	39.2882
846.9071	39.47952
847.0508	39.04739
847.1944	39.69289
847.3381	42.96502
847.4817	39.40372
847.6253	41.1536
847.7689	38.85421
847.9125	37.73814
848.0561	40.31849
848.1996	41.73792
848.3432	41.43126
848.4868	42.86112
848.6303	46.58731
848.7738	39.32611
848.9174	41.7668
849.0609	40.70376
849.2043	37.75123
849.3478	45.63155
849.4913	43.8645
849.6348	43.91037
849.7782	37.46709
849.9217	31.57204
850.0651	38.439
850.2086	41.71635
850.3519	42.02316
850.4954	40.53689
850.6387	36.75895
850.7821	42.09257
850.9255	41.51226
851.0688	39.76739
851.2122	41.47656
851.3555	37.52367
851.4988	40.57052
851.6422	43.47846
851.7855	40.82612
851.9288	38.82627
852.0721	42.30647
852.2153	39.93618
852.3586	31.397
852.5018	39.20264
852.6451	39.18501
852.7883	36.90066
852.9315	41.34253
853.0748	40.85908
853.218	42.39047
853.3611	40.54506
853.5043	40.21284
853.6475	38.92398
853.7906	40.72304
853.9338	33.74911
854.0769	34.13888
854.22	31.50795
854.3632	30.67215
854.5063	35.97188
854.6494	39.38276
854.7924	34.87345
854.9355	39.17112
855.0786	37.41974
855.2216	43.20754
855.3647	41.04894
855.5077	39.33611
855.6507	42.54059
855.7937	42.19624
855.9367	36.81476
856.0797	38.73171
856.2227	38.68923
856.3657	41.32147
856.5086	36.43606
856.6516	41.04207
856.7945	41.44864
856.9374	39.61583
857.0803	36.1382
857.2232	35.14389
857.3661	37.61781
857.509	35.26455
857.6519	37.08176
857.7947	39.10656
857.9376	35.72582
858.0804	31.6411
858.2232	36.44353
858.366	38.94827
858.5089	34.01912
858.6516	35.48112
858.7944	36.90134
858.9372	35.5378
859.08	38.322
859.2227	38.39484
859.3654	36.57248
859.5082	36.1246
859.6509	35.81278
859.7936	40.70109
859.9363	41.70833
860.079	36.6742
860.2217	38.74627
860.3643	37.48987
860.507	41.00241
860.6496	40.26768
860.7922	40.44133
860.9349	34.38951
861.0775	38.25417
861.2201	36.05775
861.3627	37.27163
861.5052	33.72853
861.6478	31.84253
861.7904	38.63566
861.9329	41.94276
862.0755	36.82793
862.218	35.63642
862.3605	35.16887
862.503	36.17967
862.6455	37.94954
862.788	38.8615
862.9305	36.62269
863.0729	36.17877
863.2154	41.83728
863.3578	41.089
863.5002	37.2164
863.6426	34.89016
863.7851	33.58568
863.9275	38.03691
864.0698	39.31829
864.2122	39.36915
864.3546	37.58976
864.4969	35.69211
864.6393	35.59512
864.7816	35.38825
864.924	39.61548
865.0662	32.07126
865.2086	33.01089
865.3508	33.64975
865.4931	30.80371
865.6354	31.89552
865.7776	38.12048
865.9199	32.87943
866.0621	31.78784
866.2043	31.35414
866.3466	28.96455
866.4888	28.37642
866.6309	26.76786
866.7731	32.23507
866.9153	33.43491
867.0574	34.88799
867.1996	33.57692
867.3417	27.59527
867.4839	36.90131
867.626	39.34908
867.7681	35.39026
867.9102	32.50084
868.0522	27.88062
868.1943	34.80036
868.3364	37.08058
868.4785	35.80731
868.6205	33.64212
868.7625	28.26847
868.9045	37.6268
869.0465	36.63964
869.1885	29.69322
869.3305	34.87413
869.4725	39.24621
869.6144	39.06151
869.7564	32.69702
869.8983	32.68634
870.0403	34.17139
870.1822	32.53714
870.3241	31.5512
870.466	35.27621
870.6079	35.01223
870.7498	36.41954
870.8916	34.38815
871.0335	35.95594
871.1754	35.20789
871.3171	32.39537
871.459	33.68236
871.6008	32.88409
871.7426	35.26566
871.8844	35.99935
872.0262	35.76003
872.1679	34.60708
872.3097	28.72987
872.4514	31.90436
872.5931	33.17875
872.7349	33.16903
872.8766	31.97572
873.0183	36.42275
873.16	36.50406
873.3017	26.60777
873.4434	33.30598
873.585	35.6708
873.7266	33.99851
873.8683	32.90406
874.0099	28.07623
874.1516	31.03399
874.2932	29.69664
874.4348	30.63475
874.5763	30.07568
874.7179	32.17698
874.8594	32.63105
875.001	28.26208
875.1425	28.23571
875.2841	32.74381
875.4256	32.85496
875.5671	26.15762
875.7086	27.56518
875.85	30.01895
875.9915	35.59472
876.133	34.79053
876.2744	32.28701
876.4159	34.05098
876.5573	34.15352
876.6987	38.69879
876.8401	33.37836
876.9815	32.65259
877.1229	29.7282
877.2643	26.08664
877.4056	32.12173
877.547	33.58351
877.6884	28.78462
877.8297	28.85337
877.971	28.84102
878.1123	30.85198
878.2536	28.90137
878.3949	28.63118
878.5362	32.32723
878.6774	35.97427
878.8187	30.14176
878.9599	31.38572
879.1011	30.06226
879.2424	32.44305
879.3836	33.19365
879.5248	35.00843
879.666	30.58858
879.8071	28.45588
879.9483	28.69527
880.0895	33.09251
880.2306	26.91326
880.3718	28.60707
880.5129	29.10766
880.654	27.37501
880.7951	27.43008
880.9362	29.59441
881.0773	29.70527
881.2183	31.29016
881.3594	31.12267
881.5004	37.71584
881.6414	35.19056
881.7825	26.39147
881.9235	33.83496
882.0645	28.0225
882.2054	26.47184
882.3464	30.00205
882.4874	30.99682
882.6284	28.02904
882.7693	27.97552
882.9103	28.23654
883.0512	31.46224
883.1921	29.93726
883.333	27.14135
883.4739	29.49165
883.6147	33.04221
883.7556	26.91414
883.8965	23.84112
884.0374	27.48981
884.1782	28.99008
884.319	31.90557
884.4598	26.35542
884.6006	26.4052
884.7414	29.68985
884.8822	32.5686
885.0229	29.19424
885.1637	28.94232
885.3044	28.95574
885.4452	31.22189
885.5859	30.19415
885.7266	29.4938
885.8673	34.93638
886.008	30.07933
886.1487	24.15618
886.2894	24.54907
886.43	28.75822
886.5707	29.74575
886.7113	29.63772
886.8519	26.51646
886.9926	25.15187
887.1331	31.68795
887.2737	25.82221
887.4143	31.35205
887.5549	27.82545
887.6954	27.94036
887.836	31.78995
887.9765	29.06856
888.1171	28.52963
888.2576	32.00994
888.3981	25.98084
888.5386	26.01084
888.679	24.7122
888.8195	32.01231
888.96	30.00139
889.1004	29.89368
889.2408	25.83953
889.3813	26.05939
889.5217	28.4479
889.6621	28.77544
889.8025	30.99669
889.9429	26.44828
890.0833	24.84297
890.2236	22.66976
890.364	20.71187
890.5043	28.1082
890.6446	26.1615
890.7849	23.48159
890.9252	30.5813
891.0655	30.41072
891.2058	31.08446
891.3461	28.47383
891.4863	28.87157
891.6266	30.18361
891.7668	26.70039
891.907	31.58881
892.0472	31.41123
892.1874	27.45914
892.3276	27.56341
892.4678	29.89707
892.608	28.32319
892.7481	26.43601
892.8883	25.11518
893.0284	29.4685
893.1685	28.93289
893.3087	23.31172
893.4487	25.85779
893.5889	28.2353
893.7289	26.90583
893.869	25.40537
894.009	29.84356
894.1491	28.81474
894.2891	29.34301
894.4291	28.75176
894.5692	23.94062
894.7092	22.46355
894.8491	24.27781
894.9891	23.81743
895.1291	20.97473
895.269	24.06023
895.409	23.83886
895.549	24.41729
895.6888	22.08842
895.8288	25.33989
895.9687	24.09867
896.1086	19.83089
896.2484	23.17181
896.3883	21.80559
896.5281	24.27249
896.668	26.56924
896.8079	28.54671
896.9476	24.13291
897.0875	23.0575
897.2272	25.52934
897.3671	26.08494
897.5068	21.32835
897.6466	21.61801
897.7864	21.61703
897.9261	24.5923
898.0658	27.11609
898.2056	22.94299
898.3453	19.29977
898.4849	23.99438
898.6246	21.01746
898.7643	22.20313
898.904	18.43019
899.0436	19.96532
899.1833	19.26761
899.3229	22.39407
899.4625	18.67134
899.6021	20.692
899.7417	23.5126
899.8813	21.13325
900.0209	17.06534
900.1605	21.46241
900.3	23.17093
900.4395	24.57915
900.579	17.96884
900.7186	17.72935
900.8581	24.20704
900.9976	26.76083
901.1371	24.99856
901.2766	18.07005
901.416	22.28439
901.5555	20.06748
901.6949	23.3321
901.8344	25.48159
901.9738	23.18223
902.1132	27.74205
902.2526	22.3739
902.3919	22.66719
902.5313	20.5292
902.6707	22.17582
