SPECTRUM DATA FILE
SpectrumCount:	1
PixelCount:	3648
UserName:	ToughBook User
SampleName:	
LightSource:	
Comments:	
DeviceName:	Qwave
DeviceManufacturer:	Broadcom
DeviceSerialNo:	11311

Name:	last spectrum
Date:	2024-05-02T14:35:15.2503548+02:00
ExposureTime:	0.02
TemporalAvg:	1
IntensityUnit:	normalizedCounts
CCDLoadLevel:	0.1500628
Temperature:	31.82086
DiagramColor:	200
ProcessingSteps:	335

Wavelength [nm]	Intensity1
334.421	38.06194
334.5891	39.44467
334.7573	32.74342
334.9254	37.65774
335.0935	36.71332
335.2616	33.48797
335.4297	32.78139
335.5978	31.44902
335.7659	34.61782
335.934	31.3787
336.1021	29.62814
336.2701	32.07608
336.4382	34.13627
336.6063	38.95837
336.7744	35.48602
336.9424	32.04085
337.1105	36.30768
337.2785	35.05123
337.4466	35.88489
337.6146	38.44264
337.7827	40.11737
337.9507	38.15407
338.1187	34.73161
338.2867	36.08578
338.4548	37.29148
338.6228	34.23264
338.7908	33.87572
338.9588	36.7814
339.1268	36.53825
339.2948	39.64117
339.4628	43.49042
339.6308	40.19592
339.7988	40.07438
339.9667	34.82614
340.1347	37.1585
340.3027	39.97321
340.4707	39.92269
340.6386	37.96213
340.8066	32.50459
340.9745	34.31852
341.1425	36.02636
341.3104	35.39427
341.4784	38.87656
341.6463	39.04694
341.8142	39.70904
341.9821	38.5416
342.1501	43.8359
342.318	40.52959
342.4859	40.53617
342.6538	40.66788
342.8217	41.68266
342.9896	44.02577
343.1575	47.48025
343.3254	36.40253
343.4933	34.63725
343.6612	38.01555
343.829	39.47765
343.9969	37.98961
344.1648	34.61787
344.3326	31.57195
344.5005	38.3612
344.6683	37.14439
344.8362	42.68948
345.004	47.56527
345.1719	44.08086
345.3397	46.91898
345.5075	45.14028
345.6754	41.99999
345.8432	46.94941
346.011	39.19812
346.1788	42.24428
346.3466	44.44009
346.5144	46.21125
346.6822	47.90944
346.85	52.76303
347.0178	47.06269
347.1856	41.71883
347.3534	43.73264
347.5211	41.52148
347.6889	48.05295
347.8567	41.72902
348.0244	42.12349
348.1922	44.58612
348.3599	43.9337
348.5277	50.07969
348.6954	45.81922
348.8632	43.89713
349.0309	38.95287
349.1986	38.03008
349.3663	41.2382
349.5341	39.43304
349.7018	46.09291
349.8695	49.26701
350.0372	46.35247
350.2049	45.2759
350.3726	51.62518
350.5403	49.75243
350.7079	50.70159
350.8756	45.84077
351.0433	43.03418
351.211	44.02404
351.3786	47.68649
351.5463	47.73215
351.714	54.17216
351.8816	53.01746
352.0493	50.76147
352.2169	47.50299
352.3846	42.05497
352.5522	45.97871
352.7198	48.81654
352.8875	47.72245
353.0551	53.91543
353.2227	56.71836
353.3903	59.14302
353.5579	59.65253
353.7255	55.61713
353.8931	57.25208
354.0607	56.06969
354.2283	53.87963
354.3958	60.42132
354.5634	58.12271
354.731	57.9217
354.8986	58.05033
355.0661	52.6859
355.2337	51.14257
355.4012	52.53506
355.5688	55.85104
355.7363	52.61973
355.9039	55.19494
356.0714	52.40082
356.239	55.05886
356.4065	47.17955
356.574	47.79172
356.7415	44.28957
356.909	44.18044
357.0765	43.1522
357.244	48.18711
357.4115	46.9122
357.579	51.96487
357.7465	51.50248
357.914	42.76191
358.0815	38.1335
358.249	39.7545
358.4164	45.21595
358.5839	49.25967
358.7513	45.55684
358.9188	48.11448
359.0862	54.57552
359.2537	57.74997
359.4211	60.29917
359.5886	59.86185
359.756	61.73245
359.9234	64.2099
360.0909	64.88749
360.2583	60.889
360.4257	55.51894
360.5931	50.35737
360.7605	50.09814
360.9279	55.86634
361.0953	49.40441
361.2627	59.95498
361.4301	56.97942
361.5974	54.66423
361.7648	58.12094
361.9322	52.51291
362.0995	54.16237
362.2669	62.66231
362.4343	65.21845
362.6016	70.14999
362.769	68.3369
362.9363	62.90881
363.1036	62.22482
363.271	63.20995
363.4383	63.1821
363.6056	65.68945
363.7729	66.39512
363.9402	65.99323
364.1075	72.02814
364.2748	64.83234
364.4421	65.37788
364.6094	60.13968
364.7767	57.67405
364.944	57.95684
365.1113	63.96932
365.2786	75.83941
365.4458	75.68913
365.6131	79.49315
365.7803	79.50308
365.9476	83.20058
366.1148	75.65179
366.2821	77.71143
366.4493	73.71596
366.6166	78.21815
366.7838	76.10023
366.951	73.53779
367.1182	81.71583
367.2855	78.35099
367.4527	77.00407
367.6199	74.15299
367.7871	70.53795
367.9543	70.1097
368.1215	71.29937
368.2886	74.91169
368.4558	77.7177
368.623	75.29466
368.7902	76.59673
368.9573	81.19122
369.1245	84.36781
369.2917	83.60227
369.4588	82.35146
369.6259	87.06966
369.7931	86.35399
369.9602	87.80898
370.1274	86.43094
370.2945	81.07077
370.4616	78.66074
370.6287	72.38689
370.7958	73.77748
370.963	83.63291
371.1301	88.40821
371.2971	97.59083
371.4643	96.69355
371.6313	91.16847
371.7984	78.04864
371.9655	68.61799
372.1326	68.41609
372.2997	74.38534
372.4667	84.0116
372.6338	87.84898
372.8008	82.9871
372.9679	82.75452
373.1349	83.35713
373.3019	70.15685
373.469	61.06175
373.636	65.68809
373.803	75.63214
373.9701	81.02027
374.1371	85.77019
374.3041	77.36214
374.4711	70.86758
374.6381	70.12306
374.8051	65.06699
374.9721	66.16202
375.1391	79.17115
375.3061	91.82665
375.473	94.94305
375.64	90.28404
375.8069	82.92437
375.9739	81.29033
376.1409	88.89806
376.3078	90.20219
376.4748	85.77043
376.6417	90.39941
376.8087	94.33447
376.9756	97.27516
377.1425	97.44881
377.3094	101.8767
377.4763	108.4301
377.6432	110.8132
377.8102	108.6968
377.9771	112.85
378.144	115.1986
378.3109	110.4391
378.4777	105.2674
378.6446	98.06304
378.8115	94.95795
378.9784	96.9609
379.1452	94.48478
379.3121	92.39137
379.4789	88.07654
379.6458	79.44305
379.8127	88.4549
379.9795	95.4369
380.1463	104.1024
380.3131	110.4056
380.48	108.5431
380.6468	108.6025
380.8136	111.6901
380.9804	109.7876
381.1472	108.8065
381.314	99.33053
381.4808	88.66309
381.6476	84.53273
381.8144	89.87486
381.9812	84.2262
382.148	82.46528
382.3147	83.2533
382.4815	75.50822
382.6483	71.22166
382.815	74.89671
382.9818	79.60313
383.1485	77.72479
383.3153	76.03423
383.482	74.32376
383.6487	72.8906
383.8155	77.45836
383.9822	74.25856
384.1489	91.62034
384.3156	104
384.4823	112.5884
384.649	105.6133
384.8157	113.3968
384.9824	108.6722
385.1491	106.5008
385.3158	108.9598
385.4825	110.0148
385.6491	100.4963
385.8158	98.84827
385.9825	99.107
386.1491	103.3966
386.3157	106.339
386.4824	111.5665
386.649	116.218
386.8157	100.1204
386.9823	95.6089
387.1489	97.72959
387.3156	99.61223
387.4821	102.6492
387.6488	105.0499
387.8154	106.2827
387.982	103.5106
388.1486	104.492
388.3152	107.5872
388.4818	110.3211
388.6483	103.6742
388.8149	101.6504
388.9815	107.925
389.148	117.4181
389.3146	120.3495
389.4811	133.4188
389.6477	140.8829
389.8142	134.4839
389.9808	137.1964
390.1473	131.6519
390.3138	135.7899
390.4804	133.5814
390.6469	125.7981
390.8134	133.7774
390.9799	145.6079
391.1464	147.1148
391.3129	147.5024
391.4794	146.2185
391.6459	145.5594
391.8124	135.8149
391.9789	127.5346
392.1453	124.1847
392.3118	124.5352
392.4782	115.7204
392.6447	109.9521
392.8112	93.64056
392.9776	77.32111
393.144	66.13015
393.3105	60.78414
393.4769	64.86366
393.6433	75.82927
393.8098	95.16022
393.9762	108.3023
394.1426	118.9247
394.309	120.424
394.4754	128.7378
394.6418	137.9102
394.8082	146.2918
394.9746	152.6766
395.141	153.1224
395.3073	154.1033
395.4737	153.9963
395.64	153.0609
395.8064	160.8004
395.9728	140.7147
396.1391	126.2385
396.3055	114.2994
396.4718	96.89164
396.6381	78.76588
396.8045	75.80526
396.9708	73.4206
397.1371	81.96971
397.3034	105.084
397.4697	122.2383
397.636	144.4969
397.8023	164.2413
397.9686	182.2842
398.1349	179.9475
398.3012	177.5873
398.4675	181.9263
398.6337	182.2457
398.8	187.9023
398.9662	194.1926
399.1325	207.7315
399.2988	206.8273
399.465	199.8287
399.6313	198.8644
399.7975	201.225
399.9637	207.426
400.1299	209.8081
400.2961	212.2566
400.4624	200.1715
400.6286	195.5924
400.7948	203.4116
400.961	213.8797
401.1272	222.0552
401.2934	218.089
401.4595	220.083
401.6257	218.5617
401.7919	226.7904
401.9581	225.0321
402.1242	220.157
402.2904	216.6567
402.4565	224.8907
402.6227	236.4331
402.7888	228.289
402.955	207.1989
403.1211	197.7311
403.2872	207.6846
403.4533	218.2197
403.6194	229.0364
403.7856	235.6328
403.9517	236.9428
404.1177	233.4793
404.2838	219.6113
404.4499	201.0429
404.616	198.0579
404.7821	204.5185
404.9482	221.8406
405.1142	239.0636
405.2803	242.2234
405.4464	230.3477
405.6124	222.5326
405.7784	215.9155
405.9445	222.2073
406.1105	222.6506
406.2766	211.9475
406.4426	206.3984
406.6086	220.7225
406.7746	232.6281
406.9406	242.2043
407.1066	234.7762
407.2726	231.5203
407.4386	227.3427
407.6046	222.8612
407.7706	224.9941
407.9366	236.0714
408.1025	249.4162
408.2685	248.8461
408.4344	248.222
408.6004	255.3821
408.7664	265.8294
408.9323	278.8018
409.0983	272.3258
409.2642	268.0418
409.4301	267.3931
409.596	246.2519
409.762	243.1603
409.9279	233.4157
410.0938	213.415
410.2597	210.9976
410.4256	226.8264
410.5915	244.4828
410.7574	255.9682
410.9232	255.9108
411.0891	267.3922
411.255	270.3011
411.4209	282.1374
411.5867	281.7283
411.7526	280.2975
411.9184	280.1112
412.0843	272.5597
412.2501	269.2287
412.4159	283.2263
412.5818	279.9472
412.7476	273.957
412.9134	268.9183
413.0792	258.1094
413.245	263.7861
413.4108	261.8024
413.5766	281.9254
413.7424	289.23
413.9082	293.7719
414.074	284.5271
414.2397	276.1379
414.4055	271.0468
414.5713	275.9205
414.737	285.3325
414.9028	284.0813
415.0685	271.8839
415.2343	277.4464
415.4	267.7593
415.5658	264.9839
415.7315	268.485
415.8972	283.7542
416.0629	287.7116
416.2286	294.7551
416.3943	297.3985
416.56	303.999
416.7257	295.218
416.8914	286.7492
417.0571	282.1073
417.2228	268.8286
417.3884	262.2215
417.5541	269.797
417.7198	282.7478
417.8854	288.0695
418.0511	289.4955
418.2167	291.5434
418.3824	294.334
418.548	291.9807
418.7136	280.374
418.8792	279.7421
419.0449	296.4534
419.2105	307.3261
419.3761	309.3504
419.5417	304.8741
419.7073	285.932
419.8729	278.6506
420.0385	281.7505
420.204	285.6079
420.3696	302.0602
420.5352	312.7096
420.7007	322.6502
420.8663	323.8757
421.0319	329.8791
421.1974	323.2528
421.3629	326.5851
421.5285	316.2511
421.694	312.0773
421.8595	315.6837
422.0251	330.0878
422.1906	340.2649
422.3561	311.9077
422.5216	281.0915
422.6871	267.8158
422.8526	279.2324
423.0181	310.4764
423.1835	331.9563
423.349	325.7392
423.5145	310.9388
423.68	315.3317
423.8454	319.4335
424.0109	320.3244
424.1763	338.2781
424.3418	341.3272
424.5072	336.3563
424.6726	321.2595
424.838	308.4219
425.0035	298.7733
425.1689	308.9195
425.3343	320.6111
425.4997	330.4556
425.6651	325.3215
425.8305	323.1368
425.9959	306.831
426.1613	309.8736
426.3267	327.3039
426.492	347.2412
426.6574	354.3589
426.8228	333.4046
426.9881	303.6172
427.1534	288.9061
427.3188	283.7335
427.4841	300.1255
427.6495	323.2875
427.8148	339.2867
427.9801	334.2497
428.1454	325.8184
428.3107	328.8806
428.476	324.332
428.6414	316.364
428.8066	301.9799
428.9719	297.6119
429.1372	307.9272
429.3025	322.1934
429.4678	316.991
429.633	300.3725
429.7983	278.4239
429.9636	252.3338
430.1288	242.6832
430.294	243.9832
430.4593	251.8478
430.6245	239.0171
430.7897	237.1954
430.955	230.172
431.1202	247.1299
431.2854	280.3354
431.4506	316.8779
431.6158	363.5381
431.781	388.3657
431.9462	392.1937
432.1114	374.4129
432.2766	339.2279
432.4417	306.3127
432.6069	304.3134
432.772	336.4217
432.9372	366.7393
433.1024	381.8206
433.2675	389.9394
433.4326	380.0539
433.5977	364.1316
433.7629	328.794
433.928	300.3144
434.0931	296.0982
434.2582	312.8665
434.4233	345.3126
434.5884	365.3639
434.7535	384.5505
434.9186	390.1114
435.0837	380.8508
435.2488	367.1243
435.4138	369.7681
435.5789	381.2925
435.744	395.2783
435.909	398.8693
436.0741	406.4167
436.2391	421.7693
436.4042	425.6548
436.5692	418.1475
436.7342	416.9475
436.8992	403.2119
437.0643	403.755
437.2293	397.2045
437.3943	391.9735
437.5593	384.2322
437.7243	401.5438
437.8893	412.916
438.0542	400.776
438.2192	360.681
438.3842	331.0451
438.5491	334.5218
438.7141	358.5705
438.8791	385.8586
439.044	391.985
439.209	390.2241
439.3739	401.9536
439.5388	412.5564
439.7037	421.8649
439.8687	418.3568
440.0336	413.0046
440.1985	401.2753
440.3634	386.2974
440.5283	382.2676
440.6932	393.1
440.8581	407.5999
441.0229	432.0981
441.1878	453.6393
441.3527	450.4977
441.5175	435.7743
441.6824	424.7063
441.8472	437.9401
442.0121	461.1738
442.1769	461.98
442.3418	448.6895
442.5066	441.2435
442.6714	438.126
442.8362	451.4504
443.001	460.8814
443.1659	455.0228
443.3307	441.8922
443.4955	433.6799
443.6602	437.8877
443.825	458.591
443.9898	474.4534
444.1546	452.0855
444.3193	443.491
444.4841	468.8034
444.6488	491.0137
444.8136	490.6678
444.9783	489.8336
445.1431	472.6681
445.3078	460.5894
445.4725	436.8329
445.6372	423.4716
445.802	428.5339
445.9667	435.5785
446.1314	438.3074
446.2961	449.2469
446.4608	463.7237
446.6255	468.8523
446.7901	460.7379
446.9548	470.319
447.1195	486.2258
447.2841	499.4129
447.4488	506.7134
447.6134	508.4949
447.7781	507.2397
447.9427	491.6104
448.1074	477.4724
448.272	479.5381
448.4366	500.6837
448.6012	513.4377
448.7658	512.4221
448.9305	491.9124
449.095	504.8527
449.2596	504.8619
449.4242	507.5302
449.5888	506.6171
449.7534	507.1502
449.9179	519.3964
450.0825	526.2098
450.2471	533.1282
450.4116	557.6453
450.5762	565.9391
450.7407	554.9907
450.9052	549.6953
451.0698	559.4069
451.2343	539.2866
451.3988	534.616
451.5633	542.3102
451.7278	542.8567
451.8923	544.9039
452.0568	546.7468
452.2213	536.4151
452.3858	528.348
452.5503	513.5083
452.7148	495.294
452.8792	495.4528
453.0437	482.9044
453.2081	491.049
453.3726	498.0557
453.537	502.7322
453.7015	530.4113
453.8659	541.2726
454.0303	548.0097
454.1947	550.2704
454.3592	541.7744
454.5236	537.5486
454.688	529.6712
454.8524	509.3861
455.0168	513.92
455.1811	527.1422
455.3455	523.6079
455.5099	525.2698
455.6743	531.1565
455.8386	549.7837
456.003	573.4166
456.1673	563.8006
456.3317	548.2322
456.496	537.529
456.6603	546.6046
456.8246	568.3484
456.989	575.2171
457.1533	555.222
457.3176	554.6913
457.4819	556.7875
457.6462	573.2179
457.8105	567.4117
457.9748	539.9316
458.1391	525.892
458.3033	527.1788
458.4676	532.4021
458.6319	545.3672
458.7961	550.1616
458.9604	551.6983
459.1246	551.2363
459.2888	547.7211
459.4531	538.8187
459.6173	530.9244
459.7815	541.9033
459.9457	545.8756
460.11	544.1901
460.2741	550.9717
460.4384	552.6657
460.6025	551.6223
460.7667	566.158
460.9309	573.7079
461.0951	577.783
461.2592	561.658
461.4234	566.7246
461.5876	568.751
461.7517	565.0333
461.9159	569.8969
462.08	579.3779
462.2441	580.9067
462.4082	572.3296
462.5724	575.4545
462.7365	579.2543
462.9006	577.0362
463.0647	581.6622
463.2288	585.7156
463.3929	578.8318
463.557	569.4832
463.721	570.8264
463.8851	567.4796
464.0492	570.6653
464.2132	577.5601
464.3773	567.1921
464.5414	555.9924
464.7054	547.1826
464.8694	552.3959
465.0334	553.6801
465.1975	572.15
465.3615	568.1179
465.5255	565.1667
465.6895	572.1287
465.8535	586.5543
466.0175	599.7726
466.1815	598.6165
466.3455	582.8591
466.5095	551.5272
466.6734	534.6121
466.8374	523.5504
467.0014	542.4759
467.1653	574.187
467.3293	582.0204
467.4932	594.2812
467.6571	601.9186
467.8211	591.0705
467.985	573.9647
468.1489	566.1689
468.3128	580.4678
468.4767	594.9673
468.6406	597.7953
468.8045	590.9066
468.9684	593.796
469.1323	592.3314
469.2962	598.8198
469.46	597.1022
469.6239	599.0198
469.7878	588.4093
469.9516	583.2339
470.1154	574.6376
470.2793	570.389
470.4431	557.3933
470.607	561.5178
470.7708	576.5014
470.9346	578.7497
471.0984	586.4163
471.2622	597.429
471.426	590.7948
471.5898	589.898
471.7536	608.6542
471.9174	623.9837
472.0811	623.6865
472.2449	628.4977
472.4087	641.8154
472.5724	628.104
472.7362	611.6855
472.8999	595.062
473.0637	594.7095
473.2274	593.4492
473.3911	601.4876
473.5548	603.9177
473.7185	598.1166
473.8822	599.9556
474.0459	618.5214
474.2096	616.7307
474.3733	621.0798
474.537	620.2028
474.7007	621.9691
474.8643	628.8748
475.028	619.2648
475.1917	612.9225
475.3553	591.5515
475.519	588.9337
475.6826	601.5524
475.8463	609.4277
476.0099	615.2615
476.1735	600.0967
476.3371	592.1666
476.5007	582.3069
476.6643	575.1996
476.8279	595.3539
476.9915	607.3606
477.1551	613.1709
477.3187	610.6812
477.4823	617.4767
477.6458	632.3613
477.8094	630.6054
477.9729	631.2802
478.1365	625.9504
478.3	617.476
478.4636	603.9772
478.6271	593.2791
478.7906	593.6014
478.9541	593.0612
479.1176	606.8882
479.2812	624.1747
479.4447	635.6519
479.6082	639.4426
479.7716	622.8926
479.9351	614.3427
480.0986	618.0262
480.2621	621.862
480.4255	623.2174
480.589	611.6822
480.7524	603.8676
480.9159	612.1508
481.0793	609.2114
481.2428	610.1521
481.4062	613.4114
481.5696	633.2234
481.733	640.563
481.8964	635.2817
482.0598	633.9326
482.2232	623.6099
482.3866	616.6306
482.55	613.4783
482.7134	621.978
482.8768	626.8315
483.0401	616.0566
483.2035	612.4503
483.3668	613.5292
483.5302	619.627
483.6935	622.3068
483.8568	613.9875
484.0202	607.7886
484.1835	606.2723
484.3468	602.8027
484.5101	621.1206
484.6734	617.4763
484.8367	617.1144
485	618.2311
485.1633	621.0884
485.3266	604.8759
485.4899	585.6509
485.6531	565.1699
485.8164	525.3908
485.9796	483.9265
486.1429	455.9408
486.3061	461.7169
486.4694	512.2299
486.6326	561.0718
486.7958	573.4988
486.959	575.2751
487.1223	560.1605
487.2855	556.4357
487.4486	572.2177
487.6118	595.0255
487.775	605.0057
487.9382	614.7427
488.1014	615.2613
488.2646	629.2694
488.4277	621.5956
488.5909	597.1172
488.754	590.3684
488.9171	578.7776
489.0803	569.9852
489.2434	584.9243
489.4066	607.3955
489.5697	659.5235
489.7328	655.0888
489.8959	641.3116
490.059	644.9368
490.2221	626.9116
490.3852	623.7683
490.5482	619.0046
490.7113	630.8491
490.8744	625.6614
491.0374	604.5543
491.2005	601.3804
491.3636	619.3886
491.5266	631.8958
491.6896	621.2531
491.8527	576.9127
492.0157	547.6193
492.1787	555.41
492.3417	572.0937
492.5047	589.9496
492.6677	614.9726
492.8307	629.8235
492.9937	642.2479
493.1567	641.6584
493.3196	628.0938
493.4826	613.9721
493.6456	608.5659
493.8085	598.5379
493.9715	597.1271
494.1344	621.1616
494.2974	636.079
494.4603	647.5917
494.6232	649.2507
494.7861	653.5251
494.949	652.5699
495.1119	651.2223
495.2748	634.0321
495.4377	635.6446
495.6006	617.4524
495.7635	593.2971
495.9264	596.3112
496.0892	634.0448
496.2521	652.8219
496.4149	653.5929
496.5778	659.2137
496.7407	642.1807
496.9035	624.7342
497.0663	624.6915
497.2291	640.5559
497.3919	651.9273
497.5547	664.3593
497.7176	656.7299
497.8804	644.3231
498.0432	619.6055
498.2059	595.5938
498.3687	585.6022
498.5315	593.1389
498.6942	626.72
498.857	642.631
499.0198	637.0688
499.1825	627.7482
499.3452	634.167
499.508	639.5163
499.6707	631.3618
499.8334	650.0949
499.9962	627.4561
500.1589	622.6994
500.3216	614.5268
500.4843	607.6339
500.6469	598.7811
500.8096	605.197
500.9723	619.2791
501.135	624.5474
501.2976	614.015
501.4603	602.7995
501.623	591.5762
501.7856	590.9216
501.9482	607.2729
502.1109	616.1128
502.2735	622.9373
502.4361	626.3024
502.5987	637.8138
502.7614	640.5172
502.924	640.6941
503.0865	653.5238
503.2491	662.6055
503.4117	651.9294
503.5743	640.3238
503.7368	624.9189
503.8994	611.946
504.062	598.0239
504.2245	592.5968
504.3871	623.7972
504.5496	658.2437
504.7121	661.1003
504.8746	654.0663
505.0372	635.6648
505.1997	643.6998
505.3622	655.014
505.5247	665.6561
505.6872	681.1785
505.8497	676.2423
506.0121	684.6111
506.1746	698.2706
506.3371	678.5255
506.4995	666.889
506.662	644.5618
506.8244	647.473
506.9869	663.0279
507.1493	651.2364
507.3117	649.4479
507.4742	659.5156
507.6366	655.8646
507.799	638.0514
507.9614	625.4559
508.1238	620.9307
508.2862	618.0594
508.4485	637.0028
508.6109	651.4199
508.7733	665.6908
508.9357	665.6869
509.098	662.6646
509.2604	668.7819
509.4227	677.2065
509.5851	666.1797
509.7474	638.2894
509.9097	619.6052
510.072	625.8853
510.2343	651.1638
510.3966	659.5438
510.5589	643.0725
510.7212	635.5217
510.8835	637.2906
511.0458	634.5118
511.2081	647.3698
511.3703	664.3082
511.5326	667.0883
511.6949	661.7054
511.8571	669.8877
512.0193	657.4325
512.1816	651.8855
512.3438	619.22
512.506	613.8824
512.6682	606.8389
512.8304	611.6251
512.9926	622.8411
513.1548	627.222
513.317	624.9336
513.4792	628.8046
513.6414	619.4496
513.8035	619.4095
513.9657	604.7069
514.1279	612.9324
514.29	617.4825
514.4521	611.0293
514.6143	620.8301
514.7764	618.7695
514.9385	619.8219
515.1006	621.2251
515.2628	616.9297
515.4249	631.556
515.587	630.9399
515.7491	641.0283
515.9111	645.7918
516.0732	645.8745
516.2353	628.1232
516.3973	591.2463
516.5594	559.7197
516.7214	520.9737
516.8835	511.8758
517.0455	508.9434
517.2076	497.0819
517.3696	515.2324
517.5316	557.2541
517.6937	605.623
517.8557	626.9283
518.0176	614.0577
518.1796	576.321
518.3416	520.6109
518.5036	513.6463
518.6656	545.6318
518.8275	594.8098
518.9895	607.0458
519.1514	595.2062
519.3134	599.5534
519.4753	588.9146
519.6373	597.0541
519.7992	606.4531
519.9611	627.3713
520.123	642.8793
520.2849	632.7855
520.4468	613.6515
520.6087	601.9883
520.7706	590.4968
520.9325	613.1995
521.0944	620.8361
521.2562	640.8015
521.4181	645.3072
521.58	634.6591
521.7418	630.2407
521.9036	628.8339
522.0655	637.1501
522.2273	645.9004
522.3891	629.7748
522.551	604.7021
522.7128	594.6184
522.8746	603.4161
523.0363	611.485
523.1981	619.9493
523.3599	618.6323
523.5217	626.4193
523.6835	643.7342
523.8452	658.1841
524.007	656.6674
524.1687	663.3109
524.3304	659.4562
524.4922	660.3951
524.6539	660.1094
524.8157	648.6587
524.9774	634.9152
525.1391	642.0748
525.3008	651.2776
525.4625	652.4974
525.6241	643.9563
525.7858	649.7238
525.9475	671.3148
526.1092	652.9903
526.2709	617.6752
526.4325	595.2527
526.5942	573.4607
526.7558	564.774
526.9174	559.2943
527.079	570.048
527.2407	596.6422
527.4023	613.0157
527.5639	629.3885
527.7255	635.0668
527.8871	645.5066
528.0487	658.4884
528.2103	648.2065
528.3718	630.5284
528.5334	652.5214
528.695	677.6386
528.8565	684.7934
529.0181	686.7983
529.1796	684.1125
529.3412	689.9649
529.5027	683.716
529.6642	645.2337
529.8257	634.5234
529.9872	636.673
530.1487	649.6153
530.3102	661.7529
530.4717	668.8598
530.6332	670.2238
530.7947	674.5851
530.9562	672.9384
531.1176	690.7112
531.2791	673.4271
531.4405	667.7693
531.6019	661.4205
531.7634	649.3333
531.9248	662.6006
532.0862	654.997
532.2477	647.3509
532.4091	634.725
532.5704	620.2538
532.7319	586.6152
532.8932	578.1813
533.0546	599.2457
533.216	628.4433
533.3774	635.9828
533.5388	649.5652
533.7001	658.7053
533.8615	642.0859
534.0228	634.6455
534.1841	629.5646
534.3455	629.9263
534.5068	641.2386
534.6681	639.6622
534.8293	631.9976
534.9907	632.8053
535.152	636.0488
535.3132	641.7234
535.4745	660.9088
535.6358	664.1044
535.7971	662.7165
535.9583	658.9686
536.1196	656.2388
536.2808	636.4839
536.4421	621.7156
536.6033	611.6597
536.7645	602.0839
536.9258	579.7794
537.087	585.2564
537.2482	592.5138
537.4094	611.5916
537.5706	631.7686
537.7318	645.7885
537.8929	640.5272
538.0541	639.9434
538.2153	623.9194
538.3764	614.4294
538.5376	617.4806
538.6987	625.9833
538.8599	620.3551
539.021	606.9145
539.1821	610.1209
539.3432	618.1982
539.5043	606.0284
539.6655	594.9364
539.8265	587.1531
539.9876	599.1439
540.1487	602.9827
540.3098	589.4069
540.4708	583.4598
540.6319	580.334
540.793	561.679
540.954	573.5621
541.1151	600.5999
541.2761	604.9513
541.4371	604.8845
541.5981	601.9188
541.7592	606.7648
541.9202	610.0601
542.0812	611.7354
542.2422	605.9247
542.4031	594.3333
542.5641	603.8918
542.7251	610.2446
542.886	606.5409
543.0471	593.666
543.208	594.2962
543.369	596.4748
543.5298	594.8204
543.6908	603.1437
543.8517	616.9979
544.0126	626.5917
544.1736	636.7927
544.3345	622.6813
544.4954	603.0383
544.6563	592.4054
544.8171	601.8544
544.978	600.332
545.1389	604.8741
545.2997	613.282
545.4606	607.8425
545.6215	593.46
545.7823	601.1926
545.9432	610.1985
546.104	620.8908
546.2648	607.6061
546.4256	597.9925
546.5864	603.7766
546.7473	606.7449
546.908	620.0478
547.0688	611.9938
547.2296	612.3335
547.3904	611.9265
547.5511	595.8016
547.7119	578.4329
547.8727	585.5278
548.0334	591.8906
548.1942	605.7046
548.3549	603.5746
548.5156	606.2225
548.6763	609.6342
548.837	611.2409
548.9977	612.769
549.1584	609.3843
549.3192	626.3304
549.4798	620.2391
549.6405	612.65
549.8011	617.1388
549.9619	608.2843
550.1225	609.382
550.2831	609.2098
550.4438	613.6395
550.6044	596.9234
550.765	597.6592
550.9257	610.8677
551.0863	615.9727
551.2469	612.988
551.4075	597.7795
551.5681	606.9528
551.7287	609.9149
551.8893	619.0656
552.0498	621.4084
552.2104	626.0607
552.371	616.2669
552.5315	602.6728
552.6921	591.3757
552.8526	582.4142
553.0131	579.0019
553.1736	602.2632
553.3342	609.7392
553.4947	606.881
553.6552	598.3788
553.8157	600.5665
553.9762	602.9346
554.1367	595.9487
554.2971	601.2032
554.4576	596.4897
554.618	596.6517
554.7785	607.0746
554.939	622.1132
555.0994	612.646
555.2598	608.26
555.4203	601.4942
555.5807	597.0714
555.7411	597.0435
555.9015	597.5583
556.0619	601.8432
556.2223	602.5754
556.3827	585.3497
556.5431	575.0814
556.7034	580.7834
556.8638	581.8966
557.0242	574.6274
557.1845	568.2817
557.3448	568.1729
557.5052	574.0964
557.6655	565.8831
557.8259	585.4081
557.9861	582.075
558.1465	581.5203
558.3068	573.3165
558.467	565.7949
558.6274	557.4022
558.7877	540.3804
558.9479	534.6409
559.1082	537.9164
559.2684	544.3123
559.4287	554.3596
559.5889	557.4792
559.7491	560.6977
559.9094	556.4131
560.0696	547.8855
560.2299	543.4485
560.3901	557.5048
560.5502	569.9031
560.7104	577.9599
560.8707	586.7412
561.0308	580.5906
561.191	575.7322
561.3511	565.9088
561.5114	546.7419
561.6714	542.2263
561.8316	548.9684
561.9918	562.4261
562.1519	560.9867
562.312	553.451
562.4722	551.6325
562.6323	555.9172
562.7924	551.9803
562.9525	565.5542
563.1125	576.0141
563.2726	569.1458
563.4327	566.084
563.5928	554.8237
563.7528	550.4337
563.9129	556.2641
564.0729	549.0214
564.233	545.6221
564.393	546.3271
564.553	559.069
564.7131	561.2853
564.873	566.6068
565.0331	559.5157
565.1931	558.6693
565.353	547.3326
565.5131	549.3734
565.673	541.2866
565.833	530.9012
565.9929	526.1678
566.1529	528.7957
566.3129	539.7758
566.4728	540.5922
566.6328	532.0626
566.7927	543.9905
566.9526	543.3099
567.1125	545.7468
567.2724	561.6369
567.4323	559.0854
567.5922	552.3764
567.7521	544.7795
567.9119	550.3869
568.0718	540.0143
568.2317	522.1245
568.3915	529.0424
568.5514	525.3404
568.7112	525.5097
568.871	529.237
569.0309	534.6834
569.1907	536.4333
569.3505	540.993
569.5103	543.1378
569.6701	535.7695
569.8299	538.111
569.9897	537.4727
570.1495	530.0282
570.3092	527.7798
570.469	529.9217
570.6287	532.0333
570.7885	511.2451
570.9482	501.1035
571.108	497.8671
571.2677	513.4985
571.4274	521.6129
571.5871	529.6787
571.7468	534.4762
571.9066	540.4558
572.0662	540.5249
572.2259	538.2695
572.3856	536.6943
572.5452	545.0344
572.7049	545.235
572.8646	534.8129
573.0242	541.4548
573.1838	549.7321
573.3435	543.0156
573.5031	536.4992
573.6627	544.324
573.8223	540.5161
573.9819	542.7495
574.1415	532.6718
574.3011	530.6693
574.4607	523.6476
574.6203	529.202
574.7798	534.2899
574.9394	532.3007
575.099	531.9391
575.2585	515.8084
575.418	511.8713
575.5776	506.8223
575.7371	516.6961
575.8966	519.8718
576.0562	521.1308
576.2156	515.2859
576.3751	518.4985
576.5346	535.2755
576.6941	539.1215
576.8536	536.3253
577.0131	529.7339
577.1725	525.4157
577.332	527.8536
577.4914	527.6793
577.6508	530.3403
577.8103	521.1277
577.9697	515.6012
578.1291	507.0241
578.2885	500.6893
578.4479	498.7703
578.6073	510.2813
578.7667	513.321
578.9261	513.6039
579.0854	504.7078
579.2448	513.1353
579.4042	500.2092
579.5635	508.9132
579.7229	500.8244
579.8822	505.1304
580.0416	513.4009
580.2009	506.6754
580.3602	499.4607
580.5195	505.7753
580.6788	510.1387
580.8381	506.6944
580.9974	497.1375
581.1566	501.4974
581.3159	506.1332
581.4752	502.7985
581.6345	506.4858
581.7937	503.7792
581.9529	505.8961
582.1122	503.8949
582.2714	510.3181
582.4306	511.5921
582.5898	504.9599
582.749	507.1948
582.9082	510.7747
583.0674	506.9053
583.2266	500.763
583.3857	504.6822
583.5449	500.3524
583.7041	496.8707
583.8633	499.7715
584.0224	507.218
584.1815	501.4464
584.3407	508.8093
584.4998	506.7804
584.6589	497.7704
584.818	488.9085
584.9771	489.8421
585.1362	497.8079
585.2953	485.9763
585.4544	485.1916
585.6135	469.4902
585.7725	465.0083
585.9316	467.1315
586.0906	467.8585
586.2497	481.275
586.4087	489.521
586.5677	481.8323
586.7267	475.7509
586.8858	474.8068
587.0448	473.8881
587.2038	474.6696
587.3628	473.8253
587.5218	476.2837
587.6807	476.1158
587.8397	480.2784
587.9987	468.3946
588.1577	466.9516
588.3166	467.5975
588.4755	451.6734
588.6345	440.0624
588.7934	436.1031
588.9523	425.2465
589.1112	412.4389
589.2701	418.3528
589.429	425.9781
589.5879	420.2764
589.7468	422.8004
589.9056	431.8963
590.0645	433.6958
590.2234	442.9969
590.3822	450.5307
590.5411	458.396
590.6999	451.9242
590.8588	445.7653
591.0176	450.5043
591.1764	452.3179
591.3352	452.1925
591.494	447.6931
591.6528	449.8561
591.8116	442.5679
591.9703	426.8375
592.1291	443.1638
592.2878	443.7519
592.4467	447.1725
592.6053	444.3247
592.7641	446.5967
592.9229	446.9413
593.0816	445.9791
593.2403	444.7355
593.399	447.3164
593.5577	452.6385
593.7164	455.0672
593.8751	449.8466
594.0338	439.4061
594.1924	443.8741
594.3511	440.0518
594.5098	440.3978
594.6684	438.4723
594.8271	442.971
594.9857	434.347
595.1443	435.3864
595.303	442.1746
595.4615	451.0034
595.6202	445.3422
595.7787	447.4377
595.9374	452.4593
596.0959	453.1931
596.2545	456.0976
596.4131	446.684
596.5717	440.0894
596.7302	444.7834
596.8887	441.6426
597.0473	450.1044
597.2058	440.998
597.3644	452.1532
597.5229	443.9558
597.6814	440.9356
597.8399	439.7148
597.9984	429.1801
598.1569	437.3331
598.3154	441.6221
598.4738	437.752
598.6323	436.5365
598.7908	431.1298
598.9492	435.1454
599.1076	439.6483
599.2661	445.7215
599.4245	441.6056
599.5829	442.4716
599.7413	427.9873
599.8997	436.2184
600.0581	437.2133
600.2165	430.1006
600.3749	435.362
600.5333	439.1642
600.6917	438.1371
600.85	425.3625
601.0084	427.397
601.1667	434.8666
601.325	429.3138
601.4833	426.0502
601.6417	427.8786
601.8	435.1228
601.9583	433.4996
602.1166	434.0197
602.2749	425.2317
602.4332	418.875
602.5914	431.6046
602.7498	432.2303
602.908	430.7017
603.0662	442.498
603.2245	440.0599
603.3828	438.2648
603.541	436.3506
603.6992	439.1125
603.8574	435.1519
604.0156	437.2722
604.1738	422.3711
604.332	428.2202
604.4902	435.7522
604.6484	441.6586
604.8065	431.2346
604.9647	427.1813
605.1229	424.5463
605.281	426.2395
605.4391	438.3122
605.5973	430.6614
605.7554	431.4243
605.9135	428.0695
606.0717	436.0374
606.2297	434.2977
606.3878	426.84
606.5459	425.4663
606.704	427.3044
606.8621	434.9284
607.0201	431.9315
607.1782	431.9063
607.3362	436.199
607.4943	442.1853
607.6523	435.0224
607.8104	433.3202
607.9684	429.2803
608.1264	430.2238
608.2844	420.5179
608.4424	418.9872
608.6003	426.4784
608.7584	426.0284
608.9163	418.1989
609.0743	418.4984
609.2322	423.1083
609.3902	419.9969
609.5482	419.5384
609.7061	422.1499
609.864	422.4222
610.0219	421.6634
610.1798	412.2574
610.3377	401.5276
610.4956	400.0032
610.6535	411.0572
610.8114	413.8424
610.9693	415.6868
611.1271	413.9214
611.285	415.0869
611.4429	413.9422
611.6007	421.9951
611.7585	407.1368
611.9164	415.3401
612.0742	411.1859
612.232	397.6597
612.3898	397.0228
612.5476	402.4832
612.7054	401.2101
612.8632	403.3499
613.0209	412.0524
613.1787	401.7153
613.3365	395.5477
613.4942	399.7215
613.652	396.2438
613.8097	391.4518
613.9674	399.295
614.1252	388.8258
614.2829	400.3052
614.4406	397.2553
614.5983	386.3055
614.756	397.392
614.9136	405.9472
615.0714	397.1905
615.229	396.4186
615.3867	394.4781
615.5443	391.9254
615.702	390.2504
615.8596	391.2066
616.0172	391.2883
616.1748	376.6382
616.3325	368.7538
616.4901	370.8482
616.6476	384.7168
616.8052	390.3803
616.9628	377.2437
617.1204	371.7702
617.278	379.7073
617.4355	387.6001
617.5931	388.4016
617.7506	382.8889
617.9081	379.3839
618.0657	380.1426
618.2232	389.5928
618.3807	395.27
618.5382	382.2972
618.6957	384.8542
618.8532	385.0362
619.0107	377.9077
619.1682	376.2135
619.3256	380.923
619.4831	384.1994
619.6406	388.5553
619.798	390.6615
619.9554	398.2557
620.1129	396.6211
620.2703	390.7212
620.4277	388.3074
620.5851	388.2404
620.7425	378.5999
620.8998	379.8102
621.0573	377.9586
621.2146	381.1698
621.372	373.474
621.5294	369.9785
621.6867	373.5431
621.8441	380.2363
622.0013	376.3473
622.1587	370.9853
622.316	366.9513
622.4733	374.6405
622.6306	381.8755
622.7879	375.4142
622.9452	369.3886
623.1025	361.8998
623.2598	367.7565
623.4171	370.3077
623.5743	372.7472
623.7316	374.4389
623.8888	364.5533
624.046	367.088
624.2032	368.0899
624.3605	368.1945
624.5176	358.1595
624.6749	358.5582
624.8321	357.205
624.9893	366.3217
625.1464	368.603
625.3036	367.4458
625.4608	359.865
625.6179	352.3161
625.7751	364.4726
625.9322	367.4279
626.0894	372.8951
626.2465	369.7343
626.4036	363.4981
626.5607	367.9068
626.7178	367.3209
626.8749	355.9389
627.032	356.7665
627.189	361.8645
627.3461	367.788
627.5032	362.1456
627.6602	360.7907
627.8173	349.6031
627.9743	348.4128
628.1313	340.7835
628.2884	347.7524
628.4454	357.1283
628.6024	366.1523
628.7594	364.8195
628.9164	357.5401
629.0734	354.1277
629.2303	353.5153
629.3873	351.132
629.5443	356.9057
629.7012	353.312
629.8582	356.63
630.0151	345.4187
630.172	351.6366
630.3289	347.1115
630.4858	350.6444
630.6428	355.8831
630.7996	354.2877
630.9565	357.0921
631.1134	355.9577
631.2703	364.1996
631.4272	356.1116
631.584	346.1151
631.7408	349.8457
631.8977	348.8763
632.0546	347.4403
632.2114	345.345
632.3682	346.0902
632.525	353.5944
632.6818	356.6259
632.8386	357.1181
632.9954	355.416
633.1522	358.0698
633.3089	357.6044
633.4657	342.2571
633.6224	339.2377
633.7792	348.4532
633.9359	342.7931
634.0927	346.2206
634.2494	349.375
634.4061	349.6275
634.5628	346.3216
634.7195	346.6112
634.8762	350.1385
635.0329	355.3011
635.1895	358.9211
635.3462	343.5091
635.5029	343.1443
635.6595	340.3729
635.8162	339.0109
635.9728	342.8911
636.1295	341.1029
636.2861	341.3642
636.4427	341.1129
636.5992	342.831
636.7559	349.1168
636.9124	338.8459
637.069	344.4129
637.2256	343.1742
637.3821	352.8948
637.5387	342.4361
637.6953	336.8393
637.8518	340.8611
638.0084	347.3946
638.1649	340.2273
638.3214	348.3267
638.4779	347.8269
638.6344	348.0775
638.7909	344.6465
638.9474	342.954
639.1038	341.0597
639.2603	331.3228
639.4167	327.2447
639.5732	334.1199
639.7297	335.9091
639.8861	336.3058
640.0425	320.5407
640.199	317.893
640.3553	328.4074
640.5118	329.9145
640.6682	324.5583
640.8245	326.9053
640.981	329.1984
641.1373	323.505
641.2936	329.0403
641.45	328.8262
641.6064	332.1517
641.7627	329.7043
641.9191	328.4626
642.0754	322.4518
642.2317	323.1315
642.388	330.7003
642.5443	337.7026
642.7006	342.8755
642.8569	335.5745
643.0131	329.4677
643.1694	321.6794
643.3257	323.5463
643.4819	323.6726
643.6382	327.3912
643.7944	322.4364
643.9506	320.228
644.1069	320.0161
644.2631	327.315
644.4193	326.1799
644.5754	328.4935
644.7316	316.2445
644.8878	313.696
645.044	312.9187
645.2002	318.8123
645.3563	316.4333
645.5125	312.5986
645.6686	329.3085
645.8248	323.2062
645.9809	307.8706
646.137	312.016
646.2931	316.2549
646.4492	308.9704
646.6053	301.8674
646.7614	304.2044
646.9174	307.4053
647.0735	301.8031
647.2296	303.0842
647.3856	305.4014
647.5417	298.0431
647.6977	301.7053
647.8537	300.3122
648.0098	301.3726
648.1658	304.1146
648.3218	309.38
648.4777	299.1195
648.6337	295.0505
648.7897	303.705
648.9457	300.9029
649.1016	297.0944
649.2576	291.3351
649.4135	283.5383
649.5695	280.9807
649.7254	291.0804
649.8813	293.3013
650.0372	292.9071
650.1932	293.9342
650.3491	298.4462
650.5049	298.7423
650.6608	306.9033
650.8167	299.9364
650.9725	299.3698
651.1284	298.0687
651.2842	293.1082
651.4401	295.4604
651.5959	294.6813
651.7518	282.0642
651.9076	283.6706
652.0634	291.3693
652.2192	290.9094
652.3749	294.3248
652.5308	289.3348
652.6865	294.0526
652.8423	300.9314
652.998	300.5541
653.1538	297.128
653.3096	293.9151
653.4653	294.7478
653.621	308.3225
653.7767	299.9398
653.9324	303.8894
654.0881	302.2106
654.2438	310.1373
654.3995	288.5705
654.5552	284.125
654.7109	281.827
654.8665	278.7711
655.0222	280.5036
655.1778	287.8043
655.3334	291.8348
655.4891	286.1474
655.6447	278.8646
655.8003	276.3395
655.9559	258.4664
656.1115	252.6996
656.2671	235.1998
656.4227	230.0504
656.5782	243.574
656.7338	260.3405
656.8893	275.3643
657.0449	277.1982
657.2004	274.1859
657.356	279.2453
657.5115	283.0281
657.667	288.6688
657.8225	277.2775
657.978	280.0481
658.1335	285.565
658.289	289.0465
658.4445	295.6254
658.5999	287.6138
658.7554	284.2675
658.9108	290.5769
659.0663	292.5009
659.2217	281.2935
659.3771	284.9552
659.5325	284.8954
659.6879	278.5094
659.8433	284.0658
659.9987	297.6285
660.1541	294.5272
660.3095	296.7089
660.4648	296.49
660.6202	293.6217
660.7756	286.942
660.9309	275.6624
661.0862	285.9333
661.2416	292.4961
661.3969	291.5326
661.5522	286.5536
661.7075	293.2169
661.8628	297.4459
662.0181	291.7122
662.1733	286.2429
662.3286	292.1678
662.4839	283.4618
662.6391	283.7447
662.7944	291.2964
662.9496	281.5104
663.1048	283.8701
663.26	285.0664
663.4152	278.0209
663.5704	278.3297
663.7256	278.4964
663.8808	281.3415
664.036	292.3669
664.1912	283.7364
664.3463	277.5403
664.5015	282.3082
664.6566	280.9078
664.8118	281.1879
664.9669	284.0783
665.122	289.035
665.2771	283.7018
665.4322	284.0076
665.5873	278.5253
665.7424	280.9528
665.8975	284.3341
666.0526	277.7302
666.2076	281.148
666.3627	282.1674
666.5177	273.686
666.6727	275.3516
666.8278	282.2961
666.9828	286.2252
667.1378	280.7688
667.2928	279.4912
667.4478	281.8423
667.6028	281.2744
667.7578	273.3446
667.9127	274.7104
668.0677	275.3266
668.2226	274.0236
668.3776	284.5753
668.5325	281.8718
668.6874	276.6905
668.8423	271.3463
668.9973	278.757
669.1522	281.3457
669.3071	279.9955
669.4619	275.4637
669.6168	278.0657
669.7717	275.2168
669.9265	274.1295
670.0814	271.5666
670.2362	268.6214
670.3911	263.0447
670.5459	270.3614
670.7007	270.8544
670.8555	277.5692
671.0103	274.5937
671.1651	268.3639
671.3199	271.6541
671.4747	275.2184
671.6295	264.8672
671.7842	266.4211
671.939	263.1884
672.0937	266.9283
672.2484	269.7494
672.4031	274.6729
672.5579	275.6206
672.7126	268.1028
672.8673	270.3996
673.022	276.217
673.1767	268.1738
673.3314	268.9299
673.486	272.9604
673.6407	272.95
673.7953	263.1652
673.95	263.4005
674.1046	264.1675
674.2592	266.1578
674.4138	266.1863
674.5684	268.982
674.723	259.9364
674.8776	265.7916
675.0322	263.2816
675.1868	253.8242
675.3414	260.4236
675.4959	263.6086
675.6505	257.9966
675.805	255.6146
675.9595	263.1862
676.1141	264.6264
676.2686	262.2974
676.4231	264.5456
676.5776	263.4601
676.7321	253.6873
676.8866	253.4286
677.041	255.4407
677.1955	258.5881
677.35	260.5672
677.5044	260.4167
677.6589	262.3486
677.8133	258.0077
677.9677	256.7914
678.1221	260.2248
678.2766	257.9771
678.4309	248.5614
678.5853	244.2636
678.7397	247.6465
678.8941	254.4579
679.0485	251.0595
679.2028	249.8672
679.3571	241.7834
679.5115	251.6357
679.6658	255.9088
679.8201	251.7029
679.9744	247.1556
680.1288	251.3598
680.2831	246.792
680.4373	246.1611
680.5916	244.2112
680.7459	246.1954
680.9001	245.5859
681.0544	247.3603
681.2087	243.2472
681.3629	238.4174
681.5171	238.7128
681.6713	242.6176
681.8256	243.8519
681.9797	245.0922
682.134	240.2992
682.2881	235.5689
682.4423	238.9702
682.5965	241.0695
682.7507	236.4041
682.9048	228.0226
683.059	236.2205
683.2131	236.0702
683.3672	227.1074
683.5213	227.858
683.6754	226.4962
683.8295	229.7374
683.9836	233.7041
684.1377	234.6863
684.2918	227.6392
684.4459	226.9874
684.5999	223.7816
684.754	222.9841
684.908	230.0321
685.062	237.9491
685.2161	227.6737
685.3701	231.0395
685.5241	224.6114
685.6781	226.0847
685.8321	231.5049
685.9861	224.2277
686.14	220.9072
686.294	225.6961
686.4479	226.5306
686.6019	224.2729
686.7559	206.0923
686.9098	184.5907
687.0637	175.3935
687.2176	174.2036
687.3715	171.3916
687.5254	176.06
687.6793	182.8209
687.8332	190.8739
687.9871	196.3356
688.1409	198.2451
688.2947	206.4454
688.4486	212.0502
688.6024	211.5393
688.7563	200.907
688.9101	203.1469
689.0639	195.9918
689.2177	196.317
689.3715	201.4796
689.5253	202.1207
689.6791	197.2649
689.8328	190.891
689.9866	194.2077
690.1403	198.1468
690.2941	198.8898
690.4478	200.5262
690.6015	199.1162
690.7552	197.5538
690.9089	198.491
691.0626	200.8874
691.2164	204.2457
691.37	202.7576
691.5237	203.3701
691.6774	200.8149
691.831	204.068
691.9847	204.4471
692.1383	204.6559
692.2919	204.242
692.4456	207.0315
692.5992	201.6897
692.7527	197.6162
692.9064	203.6259
693.0599	204.962
693.2136	205.1141
693.3671	197.5573
693.5207	206.4184
693.6742	199.3991
693.8278	197.761
693.9813	200.7598
694.1348	196.2175
694.2883	197.8257
694.4418	199.6214
694.5953	201.8811
694.7488	199.8861
694.9023	196.1987
695.0558	191.0382
695.2093	192.6763
695.3627	191.6524
695.5162	199.6145
695.6696	201.5586
695.8231	198.7219
695.9764	200.7842
696.1299	195.7545
696.2833	200.9548
696.4367	207.8686
696.5901	207.3054
696.7435	200.1033
696.8968	204.707
697.0502	205.4955
697.2036	207.4803
697.3569	197.7602
697.5102	201.2992
697.6635	195.0475
697.8168	195.3341
697.9702	190.0425
698.1235	197.5089
698.2768	202.6765
698.4301	197.8367
698.5833	203.2171
698.7366	193.527
698.8898	190.1223
699.0431	193.3982
699.1964	192.6292
699.3495	190.5522
699.5028	186.9069
699.656	198.5668
699.8092	196.0676
699.9624	199.2431
700.1156	199.6494
700.2688	196.4226
700.4219	193.8507
700.5751	192.1908
700.7283	195.5032
700.8814	184.7392
701.0345	185.6689
701.1877	191.7861
701.3408	193.7047
701.4939	188.7734
701.647	183.6581
701.8001	187.9122
701.9532	188.4251
702.1063	195.2891
702.2593	195.7151
702.4124	195.0046
702.5654	187.1475
702.7184	186.0412
702.8715	186.4142
703.0245	185.928
703.1776	194.6297
703.3305	193.9018
703.4835	195.4715
703.6365	193.9556
703.7895	191.2735
703.9424	191.4842
704.0954	191.2231
704.2484	192.9412
704.4013	195.4077
704.5543	202.0522
704.7072	194.6005
704.8601	190.8307
705.013	192.6031
705.1659	194.827
705.3188	192.7342
705.4717	190.7792
705.6246	190.3113
705.7774	188.6711
705.9303	193.6604
706.0831	196.8011
706.236	192.9765
706.3888	189.8087
706.5416	198.2202
706.6944	190.8678
706.8472	187.0609
707	190.8826
707.1528	186.7263
707.3056	179.1704
707.4583	186.3697
707.6111	185.3731
707.7639	184.9804
707.9166	187.7927
708.0693	196.8073
708.222	189.811
708.3748	188.6899
708.5275	194.1336
708.6802	186.4919
708.8328	185.2986
708.9855	190.0396
709.1382	183.7118
709.2909	191.9981
709.4435	200.045
709.5962	195.4687
709.7488	190.9468
709.9014	182.1037
710.054	182.9802
710.2067	184.7459
710.3593	180.8993
710.5118	183.7946
710.6644	185.1297
710.817	183.9937
710.9695	190.3303
711.1221	184.7543
711.2747	191.289
711.4272	192.9695
711.5797	186.3936
711.7322	188.5659
711.8848	183.6358
712.0373	187.8407
712.1898	184.0729
712.3422	179.7162
712.4948	182.2424
712.6472	184.4662
712.7996	177.0392
712.9521	181.816
713.1046	178.0331
713.257	176.0517
713.4094	178.129
713.5618	185.9977
713.7142	190.0046
713.8666	182.9885
714.019	184.0357
714.1714	184.1443
714.3237	176.8562
714.4761	181.481
714.6285	176.8822
714.7808	178.8957
714.9331	179.6955
715.0854	180.8716
715.2378	178.8434
715.3901	180.4988
715.5424	181.7372
715.6947	175.8522
715.8469	176.2048
715.9992	173.4981
716.1515	170.8405
716.3037	172.0974
716.456	169.8815
716.6082	164.4679
716.7604	151.5458
716.9127	158.3729
717.0649	158.984
717.2171	155.1584
717.3693	158.9063
717.5214	154.0664
717.6736	152.4104
717.8258	153.4475
717.978	148.3722
718.1301	149.9337
718.2822	149.8771
718.4344	145.0356
718.5865	138.9442
718.7386	144.2142
718.8907	144.5836
719.0428	148.8566
719.1949	149.0873
719.3469	142.6431
719.499	138.5087
719.6511	143.7954
719.8031	149.3446
719.9551	146.5318
720.1072	139.5513
720.2592	138.4289
720.4112	142.8336
720.5632	149.5646
720.7152	149.1758
720.8672	150.4099
721.0192	152.6781
721.1711	152.8398
721.3231	166.3115
721.475	165.0092
721.627	160.7423
721.7789	164.6094
721.9308	171.1841
722.0828	161.5875
722.2347	169.6622
722.3866	168.1375
722.5385	161.4658
722.6903	163.3405
722.8422	159.2051
722.9941	158.1311
723.1459	156.9962
723.2977	150.8601
723.4496	140.3811
723.6014	146.7254
723.7532	149.795
723.905	150.0005
724.0568	151.2673
724.2086	154.514
724.3604	152.5384
724.5121	150.8398
724.6639	146.5728
724.8157	143.2623
724.9674	151.8362
725.1191	147.7111
725.2709	139.2427
725.4226	146.2367
725.5743	141.8236
725.726	150.4762
725.8777	154.381
726.0294	148.2052
726.181	152.9804
726.3327	148.4283
726.4844	141.1476
726.636	149.0088
726.7877	152.0752
726.9393	149.3248
727.0909	149.1096
727.2425	156.6619
727.3941	149.2788
727.5457	138.7535
727.6973	135.1493
727.8488	133.2694
728.0004	141.5293
728.1519	151.7108
728.3035	156.0073
728.455	152.1962
728.6066	152.8607
728.7581	150.6091
728.9095	139.2182
729.0611	136.5346
729.2126	139.1671
729.364	137.6711
729.5155	146.3433
729.667	150.1726
729.8184	150.6983
729.9698	153.5793
730.1213	151.3488
730.2727	142.5665
730.4241	139.6463
730.5756	145.6035
730.7269	143.8983
730.8784	145.0393
731.0297	146.6667
731.1811	142.6048
731.3325	144.8722
731.4838	146.0864
731.6351	143.9945
731.7865	138.729
731.9378	141.9698
732.0891	148.2833
732.2404	149.4755
732.3917	154.275
732.543	151.4048
732.6943	145.658
732.8456	146.5338
732.9968	145.6319
733.1481	149.8781
733.2993	151.601
733.4506	150.3916
733.6018	150.8231
733.753	152.8065
733.9042	153.2527
734.0554	159.9533
734.2066	155.1411
734.3578	153.6659
734.509	150.2165
734.6602	149.1873
734.8113	152.1406
734.9624	147.3579
735.1136	148.0197
735.2647	146.4404
735.4158	143.7982
735.5669	150.5962
735.718	153.2582
735.8691	147.1537
736.0201	143.2074
736.1713	149.6889
736.3223	149.5687
736.4733	149.0926
736.6244	148.2866
736.7755	149.135
736.9265	145.0592
737.0775	143.5315
737.2285	146.3794
737.3795	153.3244
737.5305	155.5118
737.6815	156.1802
737.8324	155.0308
737.9834	147.5257
738.1343	148.2731
738.2853	154.1502
738.4362	145.9078
738.5871	152.4672
738.738	146.6141
738.8889	145.5774
739.0399	145.1562
739.1907	142.1954
739.3416	142.8163
739.4925	150.8759
739.6433	151.4809
739.7942	150.851
739.945	146.9603
740.0958	144.8846
740.2467	146.6619
740.3975	145.2643
740.5483	147.2356
740.6991	155.5523
740.8499	147.4463
741.0007	145.8886
741.1514	146.8653
741.3022	145.0744
741.4529	145.7636
741.6036	147.4917
741.7544	142.9969
741.9051	143.3173
742.0558	146.9775
742.2065	147.0668
742.3572	145.6867
742.5079	141.9368
742.6586	145.6461
742.8093	152.0359
742.9599	146.5172
743.1105	142.0118
743.2612	141.5462
743.4118	141.3405
743.5624	139.2892
743.7131	150.4828
743.8636	146.0956
744.0142	144.5256
744.1648	146.4702
744.3154	142.2058
744.4659	132.2197
744.6165	139.4225
744.767	137.4651
744.9176	138.1847
745.0681	139.7599
745.2186	143.8779
745.3691	142.9474
745.5197	146.4101
745.6702	147.8802
745.8206	143.7641
745.9711	146.766
746.1215	142.1099
746.272	141.5104
746.4224	139.2916
746.5729	137.6421
746.7233	139.6405
746.8737	138.0992
747.0241	137.8846
747.1745	137.2373
747.3249	137.0475
747.4753	142.8415
747.6257	141.847
747.776	141.4329
747.9264	140.3443
748.0767	145.3432
748.2271	140.7508
748.3774	137.6778
748.5276	134.7085
748.678	133.7769
748.8282	136.467
748.9786	140.1475
749.1288	134.0508
749.2791	131.7153
749.4294	137.0107
749.5796	137.852
749.7299	135.0671
749.8801	129.9279
750.0303	129.1138
750.1805	128.728
750.3307	137.6008
750.4809	138.8173
750.6311	135.7223
750.7813	130.1379
750.9314	130.4696
751.0816	138.7901
751.2318	134.8668
751.3818	128.578
751.532	126.4116
751.6821	125.4324
751.8322	127.5361
751.9823	139.9512
752.1324	135.0822
752.2825	129.7925
752.4326	127.1752
752.5826	121.4002
752.7327	125.3584
752.8827	125.9653
753.0327	132.7023
753.1827	128.5805
753.3328	129.7955
753.4828	138.3657
753.6328	142.3178
753.7828	133.6174
753.9327	128.8178
754.0827	127.628
754.2327	126.9519
754.3826	125.4661
754.5325	126.4156
754.6825	130.1708
754.8324	128.5345
754.9823	127.9339
755.1322	126.598
755.2821	124.0686
755.432	123.702
755.5818	118.119
755.7318	118.53
755.8816	120.7169
756.0314	121.8039
756.1813	118.8117
756.3311	121.5923
756.4809	122.067
756.6307	126.7669
756.7805	123.6911
756.9303	116.449
757.0801	116.4796
757.2299	124.113
757.3796	119.6995
757.5294	127.5431
757.6791	119.7765
757.8289	119.0052
757.9786	120.9722
758.1283	124.045
758.278	114.616
758.4277	114.2051
758.5773	117.3277
758.7271	125.2341
758.8767	117.7766
759.0264	112.8692
759.176	110.5542
759.3256	104.4059
759.4753	92.10043
759.6249	78.69232
759.7745	73.78905
759.9241	68.84662
760.0737	62.20588
760.2233	61.26064
760.3729	54.96134
760.5224	56.12832
760.6719	55.64373
760.8215	54.71253
760.971	57.26083
761.1205	63.95673
761.2701	62.76427
761.4196	66.03474
761.5691	74.91825
761.7186	84.77849
761.868	92.57296
762.0175	94.02154
762.167	85.57394
762.3164	83.23556
762.4659	75.85715
762.6153	72.52158
762.7647	71.48674
762.9141	66.96713
763.0635	64.17737
763.2129	69.78327
763.3623	68.5358
763.5117	69.71681
763.661	77.47389
763.8104	76.34789
763.9597	74.38858
764.1091	80.62924
764.2584	75.39243
764.4077	71.32153
764.557	80.05704
764.7063	80.77415
764.8556	84.86623
765.0049	85.87138
765.1541	87.11213
765.3034	90.98625
765.4526	90.52287
765.6019	85.39419
765.7511	89.16851
765.9003	96.21221
766.0496	92.24081
766.1987	90.03686
766.348	93.08104
766.4971	94.76109
766.6463	96.58489
766.7955	94.76811
766.9446	97.09334
767.0938	91.48181
767.2429	96.55775
767.392	95.48854
767.5411	99.88715
767.6902	99.16367
767.8394	101.2981
767.9884	102.2368
768.1375	100.7998
768.2866	96.71027
768.4356	96.04542
768.5847	100.6528
768.7337	96.50777
768.8828	99.21354
769.0317	99.48695
769.1808	101.3712
769.3298	99.15376
769.4788	95.26694
769.6277	98.87053
769.7767	96.99544
769.9257	100.2273
770.0746	99.96118
770.2236	95.83384
770.3725	100.8624
770.5214	102.8696
770.6703	103.5892
770.8193	101.0948
770.9681	102.1299
771.1171	103.588
771.2659	100.3935
771.4148	96.21667
771.5637	98.47035
771.7125	93.77406
771.8613	102.0931
772.0101	105.5054
772.159	96.03384
772.3078	93.25993
772.4566	97.35321
772.6054	99.39114
772.7542	100.077
772.903	100.2228
773.0517	99.64178
773.2004	98.23132
773.3492	95.97099
773.4979	98.61432
773.6467	100.8504
773.7953	97.98049
773.944	99.0472
774.0928	98.23904
774.2415	93.71632
774.3901	97.06451
774.5388	96.13751
774.6874	96.63255
774.8361	97.52319
774.9847	93.79214
775.1334	93.55482
775.282	93.64591
775.4305	100.0039
775.5792	101.5556
775.7277	97.94874
775.8763	98.60043
776.0249	96.46039
776.1735	99.6786
776.322	92.15659
776.4705	93.76574
776.6191	95.92027
776.7676	97.27602
776.9161	96.70133
777.0646	95.91668
777.2131	90.81785
777.3616	91.92953
777.5101	86.77632
777.6585	91.16721
777.8069	94.41384
777.9554	90.65768
778.1038	91.75069
778.2523	89.04817
778.4007	93.8497
778.5491	94.07538
778.6974	89.86712
778.8459	94.25443
778.9942	90.20686
779.1426	90.93587
779.291	96.11975
779.4393	93.91488
779.5876	89.51283
779.736	89.06078
779.8843	92.98305
780.0326	88.15665
780.1809	85.45926
780.3292	95.76405
780.4775	94.23542
780.6257	94.2537
780.774	91.98672
780.9222	88.06393
781.0704	86.7155
781.2187	88.89222
781.3669	88.84745
781.5151	88.44875
781.6633	90.77433
781.8115	85.01907
781.9597	82.73783
782.1078	90.28522
782.256	91.10564
782.4042	86.77419
782.5523	87.86508
782.7004	92.66691
782.8486	88.09614
782.9967	85.39329
783.1448	82.78864
783.2929	86.00174
783.441	90.87509
783.5891	90.62875
783.7371	89.91034
783.8851	88.35867
784.0332	89.43018
784.1812	85.63915
784.3293	89.42399
784.4773	92.40285
784.6253	87.03364
784.7733	87.11526
784.9213	83.59956
785.0692	86.88109
785.2172	85.362
785.3652	85.79604
785.5131	86.35361
785.6611	85.12311
785.809	87.79913
785.9569	88.22865
786.1048	88.4049
786.2527	87.16476
786.4006	89.94076
786.5485	87.42041
786.6964	85.49692
786.8442	84.31208
786.9921	81.09919
787.1399	86.10275
787.2877	82.6773
787.4355	84.62312
787.5833	84.21331
787.7311	89.6081
787.8789	86.06821
788.0267	80.76768
788.1745	87.13465
788.3223	84.10203
788.47	80.99172
788.6177	85.4082
788.7654	81.77096
788.9132	88.76472
789.0609	86.62715
789.2086	81.97121
789.3563	83.71588
789.504	80.69157
789.6517	84.84599
789.7993	83.24992
789.947	82.91116
790.0946	82.79469
790.2422	82.55064
790.3898	85.45905
790.5375	86.1814
790.6851	84.99035
790.8326	82.38302
790.9802	76.04964
791.1278	79.42336
791.2754	79.38766
791.423	77.82712
791.5705	78.15031
791.718	81.78014
791.8655	78.23447
792.0131	82.02068
792.1606	84.32549
792.308	80.07625
792.4556	79.01287
792.603	80.45969
792.7505	74.88995
792.8979	79.59763
793.0454	77.96357
793.1928	80.52772
793.3403	79.12074
793.4877	76.93398
793.6351	77.39568
793.7825	78.52569
793.9299	71.09173
794.0772	72.8428
794.2246	69.05994
794.3719	73.7572
794.5193	74.98897
794.6666	76.47533
794.814	81.4669
794.9613	84.1807
795.1086	78.13663
795.2559	75.72705
795.4032	76.21723
795.5505	78.92609
795.6978	72.39977
795.845	80.99348
795.9922	85.81987
796.1395	72.04365
796.2867	70.0885
796.4339	75.39003
796.5811	74.71415
796.7283	74.93501
796.8755	76.60728
797.0227	73.64394
797.1699	67.88239
797.317	71.35339
797.4642	65.81153
797.6113	71.16648
797.7584	71.57941
797.9056	76.23962
798.0527	74.95654
798.1998	71.58498
798.3469	73.86965
798.494	73.4335
798.641	76.11202
798.7881	75.66565
798.9351	72.82238
799.0822	77.25615
799.2292	70.89708
799.3762	71.43999
799.5232	74.81422
799.6702	74.89874
799.8172	74.5166
799.9642	69.63232
800.1111	69.2122
800.2581	69.90236
800.4051	68.83737
800.552	71.63106
800.6989	72.53561
800.8458	73.76728
800.9927	71.47023
801.1396	73.88702
801.2866	77.21382
801.4334	69.42811
801.5803	65.91893
801.7272	71.91976
801.874	72.48087
802.0209	71.2346
802.1677	71.33712
802.3145	65.93757
802.4613	64.72526
802.6081	67.29141
802.7549	69.49313
802.9017	71.31452
803.0485	70.40005
803.1952	72.50077
803.342	69.61924
803.4887	69.95836
803.6354	71.46041
803.7822	70.824
803.9289	70.60294
804.0756	66.12405
804.2223	69.83292
804.369	62.82896
804.5156	60.10733
804.6623	61.46654
804.8089	64.84659
804.9556	69.44434
805.1022	65.04672
805.2488	58.93453
805.3954	62.93587
805.542	68.9125
805.6886	69.92472
805.8352	68.82187
805.9818	59.35203
806.1283	65.1664
806.2749	67.74635
806.4214	62.68061
806.5679	71.42842
806.7145	64.5416
806.861	65.00353
807.0074	66.88708
807.154	68.0904
807.3004	61.85469
807.4469	64.37444
807.5934	69.52546
807.7398	63.89652
807.8862	64.17112
808.0327	64.49248
808.1791	65.60709
808.3255	62.19877
808.4719	59.98448
808.6183	64.22824
808.7647	63.71225
808.9111	62.02606
809.0574	64.23984
809.2037	60.28994
809.3501	63.57012
809.4965	61.086
809.6428	62.33326
809.7891	60.91755
809.9354	60.84761
810.0817	55.01448
810.2279	64.70295
810.3742	70.01544
810.5204	64.27284
810.6667	58.70708
810.8129	60.10384
810.9592	59.80821
811.1054	59.76028
811.2516	61.56734
811.3978	62.64295
811.5439	63.52737
811.6901	66.81744
811.8363	55.45445
811.9825	60.25285
812.1286	58.33764
812.2748	58.75152
812.4209	56.98458
812.567	56.63554
812.7131	58.53319
812.8592	57.26038
813.0053	57.13239
813.1514	56.57301
813.2974	47.71589
813.4435	50.37478
813.5895	48.27054
813.7356	54.56071
813.8816	57.07404
814.0276	53.71548
814.1736	54.63198
814.3196	47.63932
814.4656	46.96363
814.6116	54.14063
814.7576	49.35126
814.9035	52.00294
815.0494	50.62901
815.1954	50.57273
815.3413	53.58768
815.4872	47.37453
815.6331	49.22102
815.779	52.31463
815.9249	57.40552
816.0707	54.94695
816.2166	44.48475
816.3625	43.63232
816.5083	46.13523
816.6542	49.87016
816.8	45.20161
816.9458	51.01099
817.0916	47.65499
817.2374	51.87046
817.3832	52.70618
817.5289	50.34462
817.6747	51.15991
817.8204	48.0063
817.9662	47.86197
818.1119	50.79546
818.2576	50.96471
818.4034	48.78832
818.5491	50.14122
818.6948	49.49571
818.8405	48.52628
818.9861	49.2695
819.1318	47.77667
819.2774	44.38667
819.423	45.81044
819.5687	48.65098
819.7143	48.86547
819.8599	48.59076
820.0055	44.22279
820.1511	50.78594
820.2967	49.83102
820.4422	53.34474
820.5878	49.50071
820.7333	58.72576
820.8788	50.36913
821.0244	58.89911
821.1699	50.05465
821.3154	50.43104
821.4609	53.30075
821.6064	49.4987
821.7519	49.33097
821.8973	49.91776
822.0428	50.07985
822.1882	45.62674
822.3337	43.49447
822.4791	43.74308
822.6245	45.40794
822.7699	41.97165
822.9153	39.37307
823.0607	40.20956
823.2061	40.22799
823.3514	39.34686
823.4968	44.20009
823.6422	50.73877
823.7875	52.91704
823.9328	52.00912
824.0781	49.68873
824.2234	51.22231
824.3687	50.46791
824.514	51.88194
824.6592	51.84433
824.8045	54.78999
824.9498	53.80344
825.095	49.73332
825.2402	55.27717
825.3854	52.53608
825.5306	50.42603
825.6758	46.27597
825.821	46.12011
825.9662	50.979
826.1114	50.17616
826.2565	47.82541
826.4017	44.45661
826.5468	48.91368
826.692	46.88111
826.837	47.86596
826.9822	48.17114
827.1273	47.05824
827.2723	45.52407
827.4174	45.54725
827.5625	44.44236
827.7075	46.12769
827.8526	45.98217
827.9976	50.57365
828.1426	44.27613
828.2877	41.89391
828.4327	45.84436
828.5776	46.92672
828.7227	47.15952
828.8676	40.51372
829.0126	42.57562
829.1575	44.18955
829.3024	45.16266
829.4474	44.94801
829.5923	46.12989
829.7372	42.7305
829.8821	48.94722
830.027	41.29866
830.1719	43.07189
830.3168	44.29592
830.4616	44.62241
830.6064	40.3982
830.7513	46.50791
830.8961	44.70209
831.041	54.54978
831.1857	48.3161
831.3306	42.31733
831.4753	44.4752
831.6201	44.58941
831.7649	43.84612
831.9096	41.46418
832.0544	43.60494
832.1991	47.85586
832.3438	46.93733
832.4885	44.41098
832.6332	45.77439
832.778	44.32204
832.9226	41.39043
833.0673	38.62178
833.2119	41.23552
833.3566	45.26254
833.5012	48.11282
833.6459	43.66676
833.7905	38.84767
833.9351	43.04192
834.0797	41.79665
834.2243	43.65792
834.3688	43.58546
834.5134	43.28173
834.658	47.38805
834.8026	47.1152
834.9471	44.84909
835.0916	45.50346
835.2361	43.44021
835.3806	41.3602
835.5251	44.46859
835.6696	41.83184
835.8141	43.79033
835.9586	41.65651
836.103	39.34421
836.2474	43.60899
836.3918	47.95292
836.5363	47.36505
836.6807	42.58315
836.8251	42.70369
836.9695	45.82702
837.1138	43.69632
837.2582	45.3693
837.4026	44.92214
837.5469	44.50564
837.6913	46.43155
837.8356	43.15353
837.9799	43.30212
838.1242	46.05095
838.2686	42.52498
838.4128	42.01068
838.5571	40.79423
838.7014	37.44949
838.8456	40.1526
838.9899	42.92801
839.1341	46.74548
839.2783	43.00863
839.4225	40.5186
839.5667	42.09383
839.7109	44.25849
839.8551	43.9151
839.9993	41.57812
840.1434	38.51316
840.2876	41.64839
840.4317	43.42807
840.5759	40.0222
840.72	45.45295
840.8641	42.22894
841.0082	42.14354
841.1523	45.2485
841.2963	42.20752
841.4404	36.60458
841.5845	36.29903
841.7285	41.28758
841.8726	42.12278
842.0165	41.19986
842.1606	39.68929
842.3046	41.26484
842.4485	39.46655
842.5925	39.29681
842.7365	41.83562
842.8805	45.46801
843.0244	40.00735
843.1684	42.71153
843.3123	40.40584
843.4562	40.60461
843.6002	38.99085
843.744	39.35061
843.8879	39.93429
844.0318	43.92002
844.1757	41.30642
844.3195	38.62328
844.4634	43.18425
844.6072	39.6691
844.751	45.09485
844.8948	44.19804
845.0386	39.75023
845.1824	37.85782
845.3262	41.65543
845.47	43.97165
845.6138	36.62828
845.7575	37.96401
845.9012	42.27557
846.045	42.47955
846.1887	40.35392
846.3324	38.99276
846.4761	39.16275
846.6198	40.69331
846.7635	39.7013
846.9071	38.36481
847.0508	41.03642
847.1944	37.17959
847.3381	41.47863
847.4817	36.32495
847.6253	41.59644
847.7689	39.41645
847.9125	37.9861
848.0561	42.0463
848.1996	38.55909
848.3432	40.35207
848.4868	41.70713
848.6303	38.05258
848.7738	40.7812
848.9174	38.60073
849.0609	39.0825
849.2043	36.45004
849.3478	38.60588
849.4913	38.53027
849.6348	37.62385
849.7782	32.8574
849.9217	34.23356
850.0651	33.58245
850.2086	42.06087
850.3519	43.13874
850.4954	34.43727
850.6387	33.12792
850.7821	38.29087
850.9255	38.66608
851.0688	37.22261
851.2122	34.5659
851.3555	34.90326
851.4988	39.74091
851.6422	36.93904
851.7855	34.94316
851.9288	43.05185
852.0721	36.30405
852.2153	36.70181
852.3586	42.64215
852.5018	38.41294
852.6451	41.33154
852.7883	39.38368
852.9315	38.3363
853.0748	37.90097
853.218	39.97288
853.3611	41.12927
853.5043	35.23871
853.6475	38.83459
853.7906	41.01379
853.9338	34.40699
854.0769	32.02927
854.22	37.92045
854.3632	33.24751
854.5063	36.02913
854.6494	35.72383
854.7924	37.14571
854.9355	39.20824
855.0786	36.77412
855.2216	38.90408
855.3647	36.50586
855.5077	38.08205
855.6507	34.1768
855.7937	33.3822
855.9367	39.40295
856.0797	35.38554
856.2227	33.31481
856.3657	34.51331
856.5086	31.98926
856.6516	34.79788
856.7945	36.30261
856.9374	35.17028
857.0803	37.97646
857.2232	36.61552
857.3661	35.65426
857.509	36.12679
857.6519	37.65044
857.7947	34.3865
857.9376	35.52465
858.0804	32.80453
858.2232	32.93891
858.366	39.1409
858.5089	38.44127
858.6516	34.44926
858.7944	34.12971
858.9372	33.60144
859.08	29.05729
859.2227	37.95478
859.3654	39.82607
859.5082	37.5087
859.6509	37.52737
859.7936	34.32411
859.9363	31.67302
860.079	27.32509
860.2217	32.0443
860.3643	39.52394
860.507	37.31192
860.6496	35.38103
860.7922	34.69497
860.9349	35.47627
861.0775	37.44626
861.2201	32.2015
861.3627	33.08547
861.5052	32.8934
861.6478	31.8947
861.7904	32.60965
861.9329	33.79979
862.0755	31.65235
862.218	34.69327
862.3605	35.73916
862.503	37.20371
862.6455	32.86368
862.788	33.04091
862.9305	32.4565
863.0729	28.39135
863.2154	30.26988
863.3578	28.94932
863.5002	33.09364
863.6426	34.03867
863.7851	35.0565
863.9275	39.32751
864.0698	35.33315
864.2122	33.53937
864.3546	30.62266
864.4969	28.78739
864.6393	30.26098
864.7816	29.33831
864.924	32.78383
865.0662	34.86368
865.2086	27.27274
865.3508	26.70895
865.4931	35.15686
865.6354	35.97779
865.7776	29.04725
865.9199	32.20191
866.0621	33.67187
866.2043	26.60824
866.3466	26.72029
866.4888	26.32804
866.6309	30.5894
866.7731	27.57754
866.9153	32.51626
867.0574	33.4933
867.1996	31.79651
867.3417	30.45896
867.4839	28.08896
867.626	33.71785
867.7681	25.67066
867.9102	32.12884
868.0522	31.51671
868.1943	29.62976
868.3364	28.52544
868.4785	30.06301
868.6205	29.02738
868.7625	29.24135
868.9045	27.59688
869.0465	29.05161
869.1885	29.94319
869.3305	30.17502
869.4725	31.31572
869.6144	28.56434
869.7564	31.07638
869.8983	31.65946
870.0403	35.25615
870.1822	31.16029
870.3241	31.5471
870.466	30.39851
870.6079	29.54797
870.7498	30.37308
870.8916	31.68403
871.0335	26.96503
871.1754	29.54144
871.3171	32.74521
871.459	31.26613
871.6008	34.31557
871.7426	32.38594
871.8844	28.58898
872.0262	26.95909
872.1679	30.57287
872.3097	30.24608
872.4514	29.2955
872.5931	29.79201
872.7349	33.72651
872.8766	30.72855
873.0183	31.30602
873.16	28.09846
873.3017	31.64668
873.4434	26.71431
873.585	29.71196
873.7266	28.69575
873.8683	28.4658
874.0099	29.13193
874.1516	28.23397
874.2932	25.74772
874.4348	29.82007
874.5763	31.59307
874.7179	27.02623
874.8594	25.68263
875.001	27.24747
875.1425	27.35901
875.2841	27.18425
875.4256	25.90109
875.5671	31.40121
875.7086	28.50661
875.85	27.40695
875.9915	26.89184
876.133	28.0071
876.2744	30.3711
876.4159	31.77721
876.5573	29.92854
876.6987	29.68133
876.8401	29.23174
876.9815	24.73536
877.1229	25.05293
877.2643	24.48039
877.4056	29.25554
877.547	24.36398
877.6884	29.31707
877.8297	25.83724
877.971	27.27254
878.1123	28.74691
878.2536	26.08296
878.3949	26.66035
878.5362	27.64049
878.6774	24.71015
878.8187	25.36959
878.9599	27.99839
879.1011	27.8129
879.2424	23.99492
879.3836	28.5778
879.5248	27.98798
879.666	29.8417
879.8071	26.69065
879.9483	29.3462
880.0895	25.18884
880.2306	27.95273
880.3718	28.84339
880.5129	25.42318
880.654	29.28963
880.7951	25.89971
880.9362	25.24289
881.0773	27.92757
881.2183	26.01911
881.3594	26.60428
881.5004	26.46921
881.6414	24.53198
881.7825	24.33778
881.9235	28.22374
882.0645	28.65932
882.2054	27.25829
882.3464	28.11098
882.4874	25.41022
882.6284	24.21879
882.7693	27.17174
882.9103	28.77491
883.0512	25.5523
883.1921	26.97164
883.333	24.74574
883.4739	26.82925
883.6147	26.99711
883.7556	28.63254
883.8965	29.0596
884.0374	28.65312
884.1782	25.4426
884.319	23.701
884.4598	30.04423
884.6006	31.58393
884.7414	29.22289
884.8822	21.84256
885.0229	27.19616
885.1637	29.88019
885.3044	27.77051
885.4452	25.41613
885.5859	26.93509
885.7266	27.15263
885.8673	23.87632
886.008	20.01935
886.1487	26.00068
886.2894	27.45881
886.43	25.02279
886.5707	26.77232
886.7113	27.09765
886.8519	25.97625
886.9926	21.02176
887.1331	23.97786
887.2737	22.65408
887.4143	26.8629
887.5549	28.03952
887.6954	26.60149
887.836	20.47899
887.9765	27.97755
888.1171	25.6501
888.2576	27.53665
888.3981	27.67562
888.5386	25.31906
888.679	26.46788
888.8195	27.23405
888.96	26.2086
889.1004	25.55375
889.2408	20.95725
889.3813	20.16753
889.5217	27.24364
889.6621	23.73557
889.8025	29.68822
889.9429	28.17384
890.0833	24.33336
890.2236	26.97592
890.364	27.05127
890.5043	26.06619
890.6446	24.4261
890.7849	21.78944
890.9252	24.42414
891.0655	25.06666
891.2058	21.3609
891.3461	24.69221
891.4863	20.795
891.6266	22.66725
891.7668	28.40476
891.907	23.68313
892.0472	23.32717
892.1874	21.69023
892.3276	20.25891
892.4678	24.20085
892.608	24.26957
892.7481	17.9909
892.8883	25.95549
893.0284	21.99182
893.1685	22.03326
893.3087	22.11289
893.4487	24.80873
893.5889	26.98214
893.7289	24.80645
893.869	22.54167
894.009	23.81638
894.1491	22.44847
894.2891	19.86846
894.4291	21.39738
894.5692	20.07676
894.7092	17.90894
894.8491	20.74482
894.9891	26.06642
895.1291	25.36369
895.269	22.54054
895.409	21.89083
895.549	18.86237
895.6888	21.81743
895.8288	20.01427
895.9687	23.33433
896.1086	26.13971
896.2484	20.35456
896.3883	19.9824
896.5281	16.50407
896.668	19.20378
896.8079	21.75599
896.9476	19.63008
897.0875	19.54055
897.2272	22.37298
897.3671	20.2498
897.5068	21.22728
897.6466	22.76021
897.7864	21.40336
897.9261	23.28195
898.0658	25.74502
898.2056	22.41849
898.3453	18.08465
898.4849	18.16775
898.6246	21.127
898.7643	20.42938
898.904	14.57648
899.0436	16.73295
899.1833	21.15206
899.3229	18.76339
899.4625	22.26048
899.6021	23.69292
899.7417	22.46254
899.8813	16.61844
900.0209	19.70288
900.1605	19.19457
900.3	18.97202
900.4395	12.88704
900.579	13.16079
900.7186	19.90015
900.8581	22.33205
900.9976	16.27633
901.1371	20.01573
901.2766	21.59674
901.416	22.75054
901.5555	18.31407
901.6949	22.64783
901.8344	17.55692
901.9738	16.491
902.1132	19.28612
902.2526	18.66632
902.3919	13.35217
902.5313	18.45659
902.6707	20.24084
