SPECTRUM DATA FILE
SpectrumCount:	1
PixelCount:	3648
UserName:	ToughBook User
SampleName:	
LightSource:	
Comments:	
DeviceName:	Qwave
DeviceManufacturer:	Broadcom
DeviceSerialNo:	11311

Name:	last spectrum
Date:	2024-05-02T14:35:02.0772902+02:00
ExposureTime:	0.02
TemporalAvg:	1
IntensityUnit:	normalizedCounts
CCDLoadLevel:	0.1438164
Temperature:	31.71158
DiagramColor:	200
ProcessingSteps:	335

Wavelength [nm]	Intensity1
334.421	33.60438
334.5891	36.55993
334.7573	31.19751
334.9254	30.23013
335.0935	34.64086
335.2616	34.7577
335.4297	36.52574
335.5978	37.33087
335.7659	33.0779
335.934	31.0495
336.1021	32.01295
336.2701	29.3472
336.4382	28.69706
336.6063	35.33252
336.7744	30.15035
336.9424	29.17606
337.1105	31.89033
337.2785	33.38264
337.4466	34.09081
337.6146	33.21687
337.7827	30.93337
337.9507	40.38984
338.1187	35.09286
338.2867	29.2562
338.4548	34.54022
338.6228	38.34388
338.7908	37.12333
338.9588	28.05586
339.1268	31.07802
339.2948	32.39024
339.4628	38.15208
339.6308	39.86133
339.7988	36.77996
339.9667	37.23115
340.1347	38.35612
340.3027	38.45441
340.4707	38.21531
340.6386	39.35731
340.8066	35.10194
340.9745	37.73089
341.1425	37.95652
341.3104	33.59339
341.4784	39.39737
341.6463	42.78939
341.8142	43.47428
341.9821	41.98269
342.1501	42.25961
342.318	42.61535
342.4859	39.03153
342.6538	38.20031
342.8217	41.63092
342.9896	41.56592
343.1575	41.79202
343.3254	43.47043
343.4933	42.17091
343.6612	37.47205
343.829	36.98775
343.9969	35.75298
344.1648	32.70358
344.3326	35.17296
344.5005	30.80074
344.6683	37.2596
344.8362	41.04815
345.004	41.49991
345.1719	42.6467
345.3397	41.65351
345.5075	38.34231
345.6754	42.69991
345.8432	43.56088
346.011	41.72989
346.1788	45.53555
346.3466	41.63562
346.5144	43.7782
346.6822	43.44527
346.85	42.57323
347.0178	48.37788
347.1856	43.95562
347.3534	42.99599
347.5211	40.25511
347.6889	38.05403
347.8567	39.84873
348.0244	40.97411
348.1922	41.78773
348.3599	41.24383
348.5277	40.36099
348.6954	41.23551
348.8632	40.40682
349.0309	40.22963
349.1986	39.40657
349.3663	36.42832
349.5341	37.75617
349.7018	42.85305
349.8695	44.5789
350.0372	50.77137
350.2049	52.00155
350.3726	49.6852
350.5403	50.39731
350.7079	52.00903
350.8756	41.98679
351.0433	41.83809
351.211	42.45063
351.3786	45.74835
351.5463	49.47666
351.714	54.3951
351.8816	51.2395
352.0493	51.15256
352.2169	50.25891
352.3846	47.9025
352.5522	46.46814
352.7198	45.78689
352.8875	49.48369
353.0551	53.88532
353.2227	53.77331
353.3903	49.4732
353.5579	53.27682
353.7255	55.67432
353.8931	57.40388
354.0607	55.50786
354.2283	53.19459
354.3958	62.9492
354.5634	54.36775
354.731	46.6201
354.8986	54.12782
355.0661	59.70443
355.2337	52.87586
355.4012	52.01333
355.5688	56.67188
355.7363	58.0229
355.9039	54.82857
356.0714	51.21481
356.239	51.86511
356.4065	52.06061
356.574	45.89152
356.7415	44.78984
356.909	44.62505
357.0765	44.46155
357.244	46.64311
357.4115	48.39624
357.579	45.44704
357.7465	48.18314
357.914	43.25829
358.0815	42.49831
358.249	41.39101
358.4164	40.94503
358.5839	46.42662
358.7513	46.16897
358.9188	47.32771
359.0862	52.62869
359.2537	60.31768
359.4211	56.90306
359.5886	63.76105
359.756	59.37165
359.9234	58.62694
360.0909	56.55841
360.2583	55.98602
360.4257	52.94046
360.5931	49.02257
360.7605	52.29454
360.9279	53.22758
361.0953	53.82512
361.2627	55.64969
361.4301	57.61227
361.5974	50.90805
361.7648	50.51659
361.9322	53.29203
362.0995	55.18882
362.2669	56.84711
362.4343	69.95794
362.6016	64.09624
362.769	66.02352
362.9363	64.76238
363.1036	60.87154
363.271	58.68572
363.4383	56.53588
363.6056	55.42239
363.7729	61.20285
363.9402	70.44527
364.1075	68.20192
364.2748	63.13369
364.4421	62.76557
364.6094	56.62521
364.7767	59.76629
364.944	66.53362
365.1113	70.31661
365.2786	74.18114
365.4458	73.98412
365.6131	79.11895
365.7803	80.15179
365.9476	72.1352
366.1148	72.32538
366.2821	75.82126
366.4493	69.65314
366.6166	74.74564
366.7838	79.63361
366.951	73.47763
367.1182	78.02542
367.2855	75.58176
367.4527	76.50301
367.6199	76.15889
367.7871	69.76199
367.9543	66.7382
368.1215	66.13103
368.2886	69.91854
368.4558	73.07771
368.623	74.34039
368.7902	75.64557
368.9573	74.33544
369.1245	73.78684
369.2917	80.82498
369.4588	84.00773
369.6259	84.68368
369.7931	81.70612
369.9602	79.42722
370.1274	77.62018
370.2945	76.85129
370.4616	75.40989
370.6287	72.13843
370.7958	73.05445
370.963	75.38232
371.1301	85.07174
371.2971	88.17319
371.4643	88.64747
371.6313	90.15326
371.7984	83.15461
371.9655	67.70544
372.1326	63.81541
372.2997	71.85981
372.4667	76.27125
372.6338	84.39891
372.8008	82.66904
372.9679	79.76656
373.1349	72.75897
373.3019	69.77895
373.469	66.33851
373.636	61.14962
373.803	74.31442
373.9701	78.32783
374.1371	81.99393
374.3041	78.07139
374.4711	65.81564
374.6381	70.58044
374.8051	66.29259
374.9721	74.38802
375.1391	81.45894
375.3061	86.80007
375.473	96.98033
375.64	89.48353
375.8069	93.10841
375.9739	87.07355
376.1409	89.99492
376.3078	85.09652
376.4748	84.50111
376.6417	83.87807
376.8087	87.93227
376.9756	88.63107
377.1425	100.6552
377.3094	107.9479
377.4763	105.3227
377.6432	104.6455
377.8102	107.77
377.9771	108.7473
378.144	116.4391
378.3109	113.0571
378.4777	108.4278
378.6446	95.6328
378.8115	94.31232
378.9784	93.18452
379.1452	94.3411
379.3121	91.23832
379.4789	86.21449
379.6458	84.51537
379.8127	86.05368
379.9795	89.76844
380.1463	97.86771
380.3131	103.496
380.48	102.858
380.6468	103.1342
380.8136	108.6436
380.9804	109.285
381.1472	104.2733
381.314	96.48418
381.4808	87.37429
381.6476	86.01494
381.8144	86.52851
381.9812	84.55412
382.148	78.85078
382.3147	79.39981
382.4815	78.80788
382.6483	75.54053
382.815	68.22157
382.9818	72.13402
383.1485	73.02816
383.3153	72.98789
383.482	75.8243
383.6487	76.53547
383.8155	75.64688
383.9822	77.59546
384.1489	89.60616
384.3156	98.71302
384.4823	105.73
384.649	105.6745
384.8157	107.9376
384.9824	101.9715
385.1491	105.6541
385.3158	105.4355
385.4825	97.07796
385.6491	91.39006
385.8158	93.89629
385.9825	87.64353
386.1491	99.40683
386.3157	113.2683
386.4824	110.3924
386.649	107.0945
386.8157	95.03661
386.9823	97.00327
387.1489	97.70602
387.3156	105.9357
387.4821	107.8068
387.6488	105.6654
387.8154	103.9857
387.982	100.0691
388.1486	98.78831
388.3152	100.7274
388.4818	96.75028
388.6483	97.81365
388.8149	103.6414
388.9815	111.953
389.148	118.7811
389.3146	126.4977
389.4811	126.857
389.6477	130.4483
389.8142	136.5107
389.9808	138.4472
390.1473	127.1822
390.3138	120.5847
390.4804	119.3571
390.6469	128.845
390.8134	134.8577
390.9799	135.4298
391.1464	145.0078
391.3129	143.9084
391.4794	139.6666
391.6459	143.9689
391.8124	134.1973
391.9789	124.8927
392.1453	120.3048
392.3118	118.5234
392.4782	112.6922
392.6447	100.6746
392.8112	93.70514
392.9776	71.61393
393.144	62.45079
393.3105	60.95371
393.4769	65.61302
393.6433	71.95272
393.8098	85.70448
393.9762	101.0954
394.1426	111.0856
394.309	112.6891
394.4754	128.4497
394.6418	133.1987
394.8082	144.3434
394.9746	149.1074
395.141	154.7531
395.3073	158.589
395.4737	156.5861
395.64	155.1046
395.8064	147.0625
395.9728	137.7704
396.1391	122.5624
396.3055	116.9774
396.4718	101.1279
396.6381	83.36119
396.8045	71.89884
396.9708	74.82899
397.1371	86.42269
397.3034	112.1043
397.4697	123.9383
397.636	148.9969
397.8023	164.2468
397.9686	173.3997
398.1349	171.7914
398.3012	169.6236
398.4675	178.4575
398.6337	186.6071
398.8	184.2607
398.9662	191.5175
399.1325	196.4553
399.2988	197.7577
399.465	191.6576
399.6313	194.3626
399.7975	195.6036
399.9637	196.3601
400.1299	200.2585
400.2961	199.1197
400.4624	190.9583
400.6286	189.8108
400.7948	193.2202
400.961	209.154
401.1272	214.8795
401.2934	213.3956
401.4595	206.2781
401.6257	214.9453
401.7919	211.9775
401.9581	217.6307
402.1242	212.4804
402.2904	211.4549
402.4565	210.8712
402.6227	218.3115
402.7888	218.1958
402.955	210.2632
403.1211	201.5402
403.2872	197.4726
403.4533	202.0605
403.6194	213.399
403.7856	225.8219
403.9517	235.3564
404.1177	224.4262
404.2838	210.5505
404.4499	198.7378
404.616	189.4277
404.7821	201.3325
404.9482	224.6631
405.1142	233.6954
405.2803	219.1676
405.4464	217.3283
405.6124	213.0586
405.7784	208.8087
405.9445	211.7702
406.1105	210.6587
406.2766	215.9007
406.4426	212.1201
406.6086	214.5087
406.7746	222.7617
406.9406	224.3635
407.1066	226.6355
407.2726	219.2895
407.4386	215.6481
407.6046	215.8892
407.7706	224.598
407.9366	226.8121
408.1025	240.2773
408.2685	238.1592
408.4344	248.6695
408.6004	254.9971
408.7664	263.0641
408.9323	267.5474
409.0983	264.7912
409.2642	260.2956
409.4301	255.7916
409.596	239.8829
409.762	229.5388
409.9279	221.6208
410.0938	210.2235
410.2597	209.9179
410.4256	217.0542
410.5915	237.1152
410.7574	254.8802
410.9232	252.8334
411.0891	255.9044
411.255	262.8802
411.4209	272.0418
411.5867	271.9231
411.7526	278.2732
411.9184	273.6743
412.0843	273.0943
412.2501	270.1259
412.4159	266.883
412.5818	265.9387
412.7476	269.8575
412.9134	261.8931
413.0792	256.9112
413.245	256.5327
413.4108	261.8917
413.5766	272.3361
413.7424	277.7797
413.9082	274.3904
414.074	287.2997
414.2397	268.7507
414.4055	260.938
414.5713	264.5879
414.737	277.5562
414.9028	275.8572
415.0685	268.1761
415.2343	270.0974
415.4	264.4623
415.5658	266.8512
415.7315	270.557
415.8972	275.1879
416.0629	285.4554
416.2286	297.5756
416.3943	301.5585
416.56	292.6365
416.7257	282.5423
416.8914	278.7159
417.0571	278.7171
417.2228	259.0774
417.3884	259.2826
417.5541	274.5748
417.7198	275.592
417.8854	278.6002
418.0511	277.7312
418.2167	272.316
418.3824	277.9028
418.548	278.4496
418.7136	274.3067
418.8792	279.4313
419.0449	284.2094
419.2105	298.5153
419.3761	302.4132
419.5417	292.292
419.7073	277.8994
419.8729	268.5084
420.0385	270.005
420.204	281.7443
420.3696	292.5092
420.5352	310.868
420.7007	316.1957
420.8663	318.1486
421.0319	319.7083
421.1974	311.3401
421.3629	315.5743
421.5285	303.5823
421.694	304.896
421.8595	322.1555
422.0251	326.8062
422.1906	315.6352
422.3561	298.1283
422.5216	272.7544
422.6871	258.7815
422.8526	278.6287
423.0181	313.6034
423.1835	324.2682
423.349	314.1382
423.5145	302.3765
423.68	305.0724
423.8454	309.2298
424.0109	317.4626
424.1763	320.5254
424.3418	325.729
424.5072	324.2215
424.6726	321.0055
424.838	308.407
425.0035	290.6399
425.1689	306.2357
425.3343	316.5079
425.4997	319.3433
425.6651	319.5456
425.8305	311.5011
425.9959	300.4152
426.1613	310.6594
426.3267	320.6766
426.492	330.177
426.6574	332.9434
426.8228	316.9866
426.9881	297.8955
427.1534	273.2607
427.3188	273.9549
427.4841	287.6815
427.6495	312.562
427.8148	326.5321
427.9801	324.9178
428.1454	328.05
428.3107	326.8763
428.476	316.6625
428.6414	317.6485
428.8066	303.4997
428.9719	291.8263
429.1372	293.3629
429.3025	308.2818
429.4678	305.0547
429.633	293.9609
429.7983	265.3009
429.9636	245.9485
430.1288	232.0347
430.294	229.4252
430.4593	245.3872
430.6245	243.9927
430.7897	236.7752
430.955	234.6904
431.1202	241.3797
431.2854	274.3065
431.4506	309.784
431.6158	352.5731
431.781	379.1969
431.9462	391.5309
432.1114	366.3275
432.2766	322.6188
432.4417	296.9261
432.6069	294.8349
432.772	325.0359
432.9372	362.8554
433.1024	371.7725
433.2675	373.6483
433.4326	380.0779
433.5977	365.0992
433.7629	330.7077
433.928	291.9432
434.0931	282.8429
434.2582	306.5043
434.4233	341.4079
434.5884	366.0244
434.7535	378.3494
434.9186	378.3102
435.0837	360.6517
435.2488	355.7441
435.4138	368.8117
435.5789	375.5136
435.744	386.4908
435.909	399.718
436.0741	401.8594
436.2391	400.5976
436.4042	414.2554
436.5692	412.6809
436.7342	399.5297
436.8992	401.8125
437.0643	399.1078
437.2293	385.5108
437.3943	378.5675
437.5593	375.5889
437.7243	383.4499
437.8893	399.2798
438.0542	384.8946
438.2192	349.2697
438.3842	333.498
438.5491	335.1262
438.7141	351.9773
438.8791	368.1983
439.044	377.0789
439.209	383.1246
439.3739	384.9102
439.5388	395.7929
439.7037	408.6123
439.8687	408.657
440.0336	401.6017
440.1985	397.4579
440.3634	393.0849
440.5283	383.1599
440.6932	386.7046
440.8581	401.9465
441.0229	427.0796
441.1878	451.2281
441.3527	429.5021
441.5175	411.703
441.6824	413.761
441.8472	434.2332
442.0121	450.6875
442.1769	440.2168
442.3418	436.6275
442.5066	425.2155
442.6714	442.7785
442.8362	443.262
443.001	445.9191
443.1659	437.9645
443.3307	422.2205
443.4955	415.5221
443.6602	444.36
443.825	449.51
443.9898	447.1122
444.1546	445.3635
444.3193	452.4911
444.4841	457.9099
444.6488	463.067
444.8136	472.8575
444.9783	456.6061
445.1431	449.6213
445.3078	443.3364
445.4725	429.2069
445.6372	411.0942
445.802	410.2446
445.9667	415.2126
446.1314	421.0811
446.2961	445.3156
446.4608	446.588
446.6255	456.5318
446.7901	463.8687
446.9548	460.9168
447.1195	465.6997
447.2841	477.7849
447.4488	494.4986
447.6134	509.6841
447.7781	496.2964
447.9427	482.4332
448.1074	460.9856
448.272	462.9536
448.4366	476.9683
448.6012	497.8907
448.7658	496.1482
448.9305	475.3554
449.095	474.8728
449.2596	477.6935
449.4242	478.1724
449.5888	481.7583
449.7534	500.179
449.9179	508.9985
450.0825	508.6425
450.2471	513.3421
450.4116	536.9675
450.5762	546.6782
450.7407	538.2726
450.9052	533.9827
451.0698	532.2758
451.2343	525.6652
451.3988	519.5906
451.5633	514.2578
451.7278	507.6149
451.8923	521.6041
452.0568	524.7629
452.2213	521.1
452.3858	524.8609
452.5503	510.1093
452.7148	480.4349
452.8792	456.3856
453.0437	470.6855
453.2081	480.6895
453.3726	492.9171
453.537	491.9797
453.7015	498.6571
453.8659	527.9208
454.0303	530.8862
454.1947	522.9548
454.3592	525.306
454.5236	525.9933
454.688	517.3933
454.8524	494.5422
455.0168	500.2437
455.1811	500.5574
455.3455	511.6879
455.5099	505.8189
455.6743	510.3262
455.8386	531.6692
456.003	533.0729
456.1673	528.6467
456.3317	523.7334
456.496	524.8201
456.6603	527.6554
456.8246	537.5688
456.989	540.8635
457.1533	543.5611
457.3176	541.4283
457.4819	550.0973
457.6462	548.505
457.8105	542.512
457.9748	537.4754
458.1391	512.0052
458.3033	501.3763
458.4676	503.6068
458.6319	507.6112
458.7961	520.0305
458.9604	532.1263
459.1246	534.8696
459.2888	519.6739
459.4531	518.0615
459.6173	524.7273
459.7815	516.2698
459.9457	518.196
460.11	516.4398
460.2741	524.699
460.4384	532.9965
460.6025	536.5133
460.7667	542.596
460.9309	546.884
461.0951	541.8176
461.2592	546.4084
461.4234	537.8196
461.5876	546.0715
461.7517	539.6993
461.9159	549.4722
462.08	555.5251
462.2441	551.1837
462.4082	562.0977
462.5724	558.3349
462.7365	554.5999
462.9006	560.7795
463.0647	562.0913
463.2288	567.2746
463.3929	559.389
463.557	560.3877
463.721	546.0698
463.8851	550.1548
464.0492	549.7485
464.2132	557.5903
464.3773	555.2729
464.5414	540.8054
464.7054	529.1992
464.8694	530.7231
465.0334	542.6093
465.1975	556.5135
465.3615	550.2678
465.5255	554.4879
465.6895	559.3215
465.8535	572.5193
466.0175	577.4371
466.1815	583.233
466.3455	566.2655
466.5095	533.8465
466.6734	516.8957
466.8374	511.6517
467.0014	528.4489
467.1653	551.8344
467.3293	570.478
467.4932	575.5369
467.6571	567.4664
467.8211	565.8915
467.985	557.6967
468.1489	558.4481
468.3128	562.7321
468.4767	567.5269
468.6406	570.3545
468.8045	573.3621
468.9684	569.3044
469.1323	572.3414
469.2962	580.65
469.46	581.9344
469.6239	577.1338
469.7878	571.8365
469.9516	560.6974
470.1154	544.6661
470.2793	540.5995
470.4431	545.5397
470.607	553.8444
470.7708	551.4509
470.9346	554.7889
471.0984	557.0053
471.2622	570.1525
471.426	571.681
471.5898	576.1649
471.7536	591.3155
471.9174	608.3688
472.0811	614.421
472.2449	605.5028
472.4087	609.1885
472.5724	601.2864
472.7362	590.7623
472.8999	573.9261
473.0637	569.0829
473.2274	561.3278
473.3911	574.0005
473.5548	566.314
473.7185	572.531
473.8822	582.1767
474.0459	587.1848
474.2096	598.3141
474.3733	607.7616
474.537	610.5221
474.7007	601.9639
474.8643	595.2932
475.028	588.6933
475.1917	591.4374
475.3553	580.1443
475.519	567.604
475.6826	580.7589
475.8463	585.8842
476.0099	588.8378
476.1735	577.2553
476.3371	556.637
476.5007	549.3149
476.6643	560.0421
476.8279	577.7505
476.9915	585.24
477.1551	587.438
477.3187	589.2769
477.4823	597.636
477.6458	610.3589
477.8094	612.4648
477.9729	610.6115
478.1365	597.7969
478.3	589.6816
478.4636	587.8168
478.6271	580.7045
478.7906	578.3353
478.9541	581.7293
479.1176	586.5937
479.2812	600.0339
479.4447	604.5806
479.6082	608.637
479.7716	605.7279
479.9351	591.2236
480.0986	581.6886
480.2621	594.1262
480.4255	594.5475
480.589	592.4168
480.7524	580.9684
480.9159	586.2214
481.0793	594.5817
481.2428	595.6187
481.4062	599.7687
481.5696	610.7601
481.733	609.2281
481.8964	607.061
482.0598	611.9831
482.2232	600.5099
482.3866	603.9894
482.55	592.6199
482.7134	593.6441
482.8768	600.7554
483.0401	589.4814
483.2035	591.9258
483.3668	595.5482
483.5302	602.4169
483.6935	594.5655
483.8568	593.575
484.0202	590.338
484.1835	579.5196
484.3468	580.6539
484.5101	591.0812
484.6734	591.2697
484.8367	591.869
485	587.6885
485.1633	584.6301
485.3266	578.2957
485.4899	546.4339
485.6531	538.3222
485.8164	521.6912
485.9796	479.6566
486.1429	444.1987
486.3061	445.8899
486.4694	492.1371
486.6326	533.289
486.7958	547.8173
486.959	541.5534
487.1223	527.9482
487.2855	537.666
487.4486	554.7771
487.6118	578.8111
487.775	583.4678
487.9382	593.2038
488.1014	601.9955
488.2646	594.6145
488.4277	585.1776
488.5909	573.0551
488.754	565.1921
488.9171	557.3554
489.0803	544.8206
489.2434	566.6422
489.4066	589.1179
489.5697	625.7291
489.7328	630.7077
489.8959	616.8416
490.059	613.5962
490.2221	607.2092
490.3852	606.4879
490.5482	605.7761
490.7113	604.2012
490.8744	587.9748
491.0374	584.7562
491.2005	584.7183
491.3636	591.5821
491.5266	603.7158
491.6896	589.08
491.8527	566.5259
492.0157	544.1721
492.1787	535.2375
492.3417	554.8071
492.5047	580.2939
492.6677	588.9177
492.8307	601.6765
492.9937	617.6981
493.1567	610.7971
493.3196	597.1107
493.4826	590.7312
493.6456	580.5051
493.8085	571.2395
493.9715	576.3126
494.1344	587.171
494.2974	611.9056
494.4603	625.8919
494.6232	613.6398
494.7861	621.5174
494.949	632.5771
495.1119	630.2693
495.2748	631.5563
495.4377	609.7332
495.6006	586.7628
495.7635	563.8951
495.9264	577.2261
496.0892	606.5743
496.2521	628.3258
496.4149	634.8765
496.5778	628.9757
496.7407	619.5878
496.9035	615.4964
497.0663	610.2715
497.2291	620.1403
497.3919	625.7459
497.5547	625.0278
497.7176	619.0526
497.8804	609.6559
498.0432	598.7458
498.2059	587.0817
498.3687	564.8951
498.5315	569.567
498.6942	593.1766
498.857	617.7092
499.0198	623.0807
499.1825	611.605
499.3452	614.1384
499.508	625.8227
499.6707	622.5111
499.8334	623.9025
499.9962	607.3433
500.1589	590.3004
500.3216	589.009
500.4843	579.7482
500.6469	575.3259
500.8096	588.7542
500.9723	606.4483
501.135	603.5315
501.2976	585.5771
501.4603	562.4159
501.623	563.9018
501.7856	568.4068
501.9482	589.5104
502.1109	599.8182
502.2735	597.5
502.4361	607.2195
502.5987	609.5669
502.7614	611.2144
502.924	622.3297
503.0865	632.3031
503.2491	633.9105
503.4117	631.4428
503.5743	610.9266
503.7368	597.946
503.8994	582.9606
504.062	567.2068
504.2245	580.019
504.3871	609.2568
504.5496	642.468
504.7121	643.6043
504.8746	622.376
505.0372	610.8544
505.1997	611.157
505.3622	622.1579
505.5247	638.9278
505.6872	650.5683
505.8497	649.6602
506.0121	667.7825
506.1746	663.0208
506.3371	655.577
506.4995	643.6329
506.662	628.7244
506.8244	635.2867
506.9869	628.506
507.1493	627.8275
507.3117	628.2892
507.4742	622.0027
507.6366	626.3936
507.799	611.4374
507.9614	597.6532
508.1238	596.859
508.2862	606.7219
508.4485	634.5424
508.6109	643.7665
508.7733	647.7997
508.9357	640.4607
509.098	643.8225
509.2604	655.7388
509.4227	645.4308
509.5851	635.3833
509.7474	618.1361
509.9097	611.9735
510.072	616.9486
510.2343	629.4871
510.3966	634.9172
510.5589	626.4677
510.7212	613.1805
510.8835	621.7686
511.0458	622.9476
511.2081	620.2086
511.3703	640.4922
511.5326	646.6046
511.6949	641.4293
511.8571	645.3959
512.0193	640.569
512.1816	616.0795
512.3438	592.8331
512.506	597.3837
512.6682	595.3756
512.8304	595.0521
512.9926	599.9059
513.1548	601.2587
513.317	595.0711
513.4792	606.7318
513.6414	598.5696
513.8035	582.6695
513.9657	582.7604
514.1279	575.6818
514.29	580.5197
514.4521	588.3458
514.6143	588.2925
514.7764	597.3053
514.9385	595.5842
515.1006	601.5751
515.2628	612.7272
515.4249	584.3382
515.587	596.0956
515.7491	598.2717
515.9111	606.2509
516.0732	609.0436
516.2353	591.3043
516.3973	571.1069
516.5594	540.0956
516.7214	502.925
516.8835	489.1519
517.0455	491.6447
517.2076	485.6065
517.3696	507.9504
517.5316	540.423
517.6937	576.9371
517.8557	601.9034
518.0176	582.8962
518.1796	546.559
518.3416	499.975
518.5036	497.0676
518.6656	522.8586
518.8275	570.6716
518.9895	595.6148
519.1514	578.2028
519.3134	571.7251
519.4753	578.5754
519.6373	588.7106
519.7992	590.7495
519.9611	603.8996
520.123	611.7755
520.2849	612.0494
520.4468	581.1649
520.6087	575.0893
520.7706	565.9287
520.9325	572.5704
521.0944	599.3751
521.2562	611.6205
521.4181	609.1943
521.58	598.9801
521.7418	594.6531
521.9036	602.3123
522.0655	626.5994
522.2273	622.2429
522.3891	601.5018
522.551	582.4375
522.7128	575.1185
522.8746	581.4556
523.0363	592.6569
523.1981	588.6486
523.3599	596.196
523.5217	601.8834
523.6835	616.3295
523.8452	630.0887
524.007	635.2784
524.1687	631.364
524.3304	642.3736
524.4922	633.2721
524.6539	630.5863
524.8157	628.5165
524.9774	626.4496
525.1391	618.7123
525.3008	618.0486
525.4625	631.7437
525.6241	627.1818
525.7858	635.2922
525.9475	639.6786
526.1092	620.6313
526.2709	591.2346
526.4325	562.6479
526.5942	545.0906
526.7558	549.5936
526.9174	543.8824
527.079	550.4568
527.2407	569.416
527.4023	578.1356
527.5639	593.6152
527.7255	616.3958
527.8871	628.9498
528.0487	629.8438
528.2103	616.451
528.3718	601.1586
528.5334	616.527
528.695	637.8257
528.8565	651.7924
529.0181	659.4685
529.1796	656.7971
529.3412	650.269
529.5027	643.2813
529.6642	618.1311
529.8257	603.3113
529.9872	612.7791
530.1487	620.6727
530.3102	627.2353
530.4717	625.7886
530.6332	641.1898
530.7947	648.2016
530.9562	652.3917
531.1176	650.2678
531.2791	643.2062
531.4405	636.0045
531.6019	636.6857
531.7634	633.3115
531.9248	627.2278
532.0862	622.654
532.2477	610.9553
532.4091	608.2828
532.5704	581.6158
532.7319	569.8368
532.8932	561.7876
533.0546	573.8322
533.216	597.0582
533.3774	621.5809
533.5388	621.4435
533.7001	614.0394
533.8615	599.2692
534.0228	587.9323
534.1841	598.1542
534.3455	603.967
534.5068	611.303
534.6681	606.5003
534.8293	600.4353
534.9907	604.3376
535.152	623.068
535.3132	621.4521
535.4745	626.5071
535.6358	629.9391
535.7971	630.2722
535.9583	630.4968
536.1196	620.9276
536.2808	609.9567
536.4421	603.1613
536.6033	596.061
536.7645	586.4473
536.9258	575.369
537.087	560.8911
537.2482	568.0167
537.4094	591.0203
537.5706	605.443
537.7318	609.7618
537.8929	612.5933
538.0541	606.4501
538.2153	596.1956
538.3764	595.0744
538.5376	594.7676
538.6987	604.4067
538.8599	599.7557
539.021	592.3176
539.1821	586.237
539.3432	578.6804
539.5043	578.4118
539.6655	581.3511
539.8265	578.8366
539.9876	574.0329
540.1487	580.9542
540.3098	576.5073
540.4708	553.2019
540.6319	552.1633
540.793	560.7205
540.954	560.4336
541.1151	576.9519
541.2761	567.7073
541.4371	575.283
541.5981	579.3861
541.7592	584.2192
541.9202	587.3921
542.0812	595.7471
542.2422	575.3447
542.4031	571.249
542.5641	570.1641
542.7251	586.6041
542.886	579.3135
543.0471	568.2002
543.208	564.001
543.369	560.9254
543.5298	557.0298
543.6908	573.451
543.8517	596.7258
544.0126	606.6961
544.1736	606.688
544.3345	597.6959
544.4954	581.4674
544.6563	580.5968
544.8171	575.5121
544.978	579.4233
545.1389	585.8419
545.2997	587.324
545.4606	577.619
545.6215	572.9246
545.7823	578.3791
545.9432	591.0073
546.104	587.7368
546.2648	578.8546
546.4256	571.703
546.5864	572.3843
546.7473	580.0978
546.908	588.2323
547.0688	582.2555
547.2296	585.5067
547.3904	575.8774
547.5511	559.0883
547.7119	552.6527
547.8727	561.1811
548.0334	570.7083
548.1942	575.5527
548.3549	591.9056
548.5156	591.1006
548.6763	593.5647
548.837	581.8372
548.9977	587.7036
549.1584	595.4984
549.3192	599.2355
549.4798	586.3743
549.6405	586.6183
549.8011	580.3659
549.9619	578.6335
550.1225	584.3882
550.2831	579.6655
550.4438	567.3422
550.6044	578.358
550.765	575.9557
550.9257	575.5342
551.0863	572.0111
551.2469	567.2343
551.4075	568.418
551.5681	582.2811
551.7287	582.8917
551.8893	590.7056
552.0498	593.6943
552.2104	590.1304
552.371	590.9734
552.5315	584.4626
552.6921	577.0568
552.8526	562.2222
553.0131	567.6596
553.1736	570.5124
553.3342	572.2995
553.4947	573.511
553.6552	564.6859
553.8157	571.7565
553.9762	577.1324
554.1367	581.6678
554.2971	583.4063
554.4576	575.967
554.618	579.3373
554.7785	575.3047
554.939	584.2472
555.0994	572.3411
555.2598	561.3333
555.4203	567.4575
555.5807	569.803
555.7411	565.1328
555.9015	569.1932
556.0619	565.0969
556.2223	554.0834
556.3827	548.7811
556.5431	547.9473
556.7034	547.2003
556.8638	548.4741
557.0242	553.0566
557.1845	548.3118
557.3448	549.558
557.5052	547.6575
557.6655	543.7583
557.8259	546.7932
557.9861	549.8929
558.1465	546.9417
558.3068	542.4445
558.467	537.5806
558.6274	519.3483
558.7877	518.0975
558.9479	521.6746
559.1082	525.2778
559.2684	522.402
559.4287	516.6439
559.5889	530.0077
559.7491	532.3343
559.9094	528.9907
560.0696	507.3891
560.2299	513.1357
560.3901	522.0271
560.5502	530.6211
560.7104	545.837
560.8707	549.6105
561.0308	560.6571
561.191	552.0003
561.3511	538.6483
561.5114	527.4562
561.6714	526.1276
561.8316	524.8219
561.9918	538.0767
562.1519	531.442
562.312	523.4082
562.4722	528.8554
562.6323	520.7977
562.7924	534.0623
562.9525	542.8181
563.1125	539.4185
563.2726	547.6387
563.4327	528.2824
563.5928	519.4229
563.7528	523.4507
563.9129	524.93
564.0729	522.1845
564.233	518.5135
564.393	521.6261
564.553	524.0911
564.7131	532.4154
564.873	539.2869
565.0331	527.525
565.1931	525.2184
565.353	516.9897
565.5131	514.3763
565.673	518.1503
565.833	505.4939
565.9929	503.8122
566.1529	509.3112
566.3129	506.9095
566.4728	518.6457
566.6328	517.4755
566.7927	512.8298
566.9526	518.8423
567.1125	518.1839
567.2724	533.6539
567.4323	527.3904
567.5922	525.529
567.7521	525.6445
567.9119	520.1106
568.0718	515.4338
568.2317	511.9001
568.3915	508.4277
568.5514	493.7997
568.7112	498.8342
568.871	497.1829
569.0309	512.4434
569.1907	513.9608
569.3505	516.8234
569.5103	512.1921
569.6701	509.5204
569.8299	503.0184
569.9897	502.2847
570.1495	503.8772
570.3092	505.9857
570.469	499.2772
570.6287	497.0057
570.7885	488.4068
570.9482	488.829
571.108	483.0396
571.2677	486.605
571.4274	499.5569
571.5871	502.9734
571.7468	502.1093
571.9066	514.2225
572.0662	512.032
572.2259	511.9241
572.3856	514.1384
572.5452	503.0276
572.7049	505.6512
572.8646	507.6667
573.0242	504.3867
573.1838	512.4396
573.3435	504.1301
573.5031	507.9454
573.6627	517.7122
573.8223	513.3823
573.9819	505.0831
574.1415	506.9199
574.3011	509.2421
574.4607	506.5368
574.6203	501.9891
574.7798	508.8402
574.9394	496.7439
575.099	496.819
575.2585	480.6258
575.418	492.5905
575.5776	488.1844
575.7371	488.3761
575.8966	487.2956
576.0562	490.6455
576.2156	495.752
576.3751	502.4521
576.5346	499.6475
576.6941	506.1296
576.8536	503.3567
577.0131	495.2271
577.1725	494.7577
577.332	498.1597
577.4914	492.3797
577.6508	485.3452
577.8103	486.4122
577.9697	481.0331
578.1291	479.5906
578.2885	475.7376
578.4479	474.4746
578.6073	475.4606
578.7667	478.0107
578.9261	478.5028
579.0854	479.3298
579.2448	472.5593
579.4042	477.9824
579.5635	484.0154
579.7229	479.0143
579.8822	486.3915
580.0416	484.7174
580.2009	485.2901
580.3602	484.9481
580.5195	485.8735
580.6788	478.3911
580.8381	473.0671
580.9974	479.7015
581.1566	484.054
581.3159	478.8928
581.4752	474.4967
581.6345	473.2507
581.7937	480.3115
581.9529	478.342
582.1122	478.6871
582.2714	476.8746
582.4306	475.2167
582.5898	482.9861
582.749	475.973
582.9082	470.8932
583.0674	467.6184
583.2266	480.4249
583.3857	479.4201
583.5449	480.4712
583.7041	467.8466
583.8633	462.2755
584.0224	470.0705
584.1815	471.5491
584.3407	464.3436
584.4998	465.2794
584.6589	461.9875
584.818	450.5331
584.9771	453.6277
585.1362	462.8022
585.2953	461.6754
585.4544	461.5722
585.6135	446.7523
585.7725	446.8921
585.9316	450.8714
586.0906	449.2694
586.2497	441.6462
586.4087	449.582
586.5677	453.6597
586.7267	447.8176
586.8858	451.5213
587.0448	450.1228
587.2038	456.1474
587.3628	444.0461
587.5218	446.6734
587.6807	444.839
587.8397	440.0919
587.9987	443.3014
588.1577	440.0366
588.3166	439.8613
588.4755	433.1716
588.6345	425.6251
588.7934	415.2712
588.9523	396.0832
589.1112	384.743
589.2701	390.1552
589.429	393.1782
589.5879	393.7817
589.7468	396.5386
589.9056	400.6774
590.0645	411.4877
590.2234	419.8074
590.3822	427.0052
590.5411	422.5137
590.6999	426.3636
590.8588	425.4055
591.0176	422.2531
591.1764	427.8758
591.3352	413.3558
591.494	418.4171
591.6528	419.6297
591.8116	414.6031
591.9703	425.8247
592.1291	425.3458
592.2878	422.0112
592.4467	420.4262
592.6053	415.5143
592.7641	414.7725
592.9229	418.6724
593.0816	417.9126
593.2403	417.5916
593.399	421.0216
593.5577	426.5048
593.7164	421.7482
593.8751	429.0741
594.0338	415.4363
594.1924	410.3547
594.3511	413.94
594.5098	413.3737
594.6684	412.2491
594.8271	417.8995
594.9857	414.1263
595.1443	413.5188
595.303	409.9658
595.4615	403.8706
595.6202	404.4182
595.7787	412.0582
595.9374	410.2191
596.0959	409.5561
596.2545	422.5862
596.4131	416.1587
596.5717	413.1971
596.7302	423.4721
596.8887	410.6904
597.0473	419.697
597.2058	416.6939
597.3644	410.0485
597.5229	409.0616
597.6814	410.002
597.8399	413.7502
597.9984	409.0377
598.1569	404.891
598.3154	416.1929
598.4738	416.472
598.6323	409.243
598.7908	405.195
598.9492	409.2026
599.1076	418.6437
599.2661	422.8373
599.4245	416.7133
599.5829	421.7775
599.7413	410.333
599.8997	405.1775
600.0581	417.0457
600.2165	419.2039
600.3749	416.4637
600.5333	412.6817
600.6917	414.1992
600.85	403.0451
601.0084	410.705
601.1667	407.1586
601.325	402.2253
601.4833	400.6533
601.6417	400.9598
601.8	401.5901
601.9583	414.4531
602.1166	405.4604
602.2749	397.7282
602.4332	394.0529
602.5914	405.6591
602.7498	415.5717
602.908	409.8103
603.0662	411.7004
603.2245	409.1285
603.3828	402.9182
603.541	401.0237
603.6992	401.1182
603.8574	414.6806
604.0156	410.8911
604.1738	397.2396
604.332	404.8934
604.4902	410.4334
604.6484	413.046
604.8065	408.8533
604.9647	404.3943
605.1229	396.9749
605.281	407.1866
605.4391	406.0604
605.5973	407.9022
605.7554	407.4178
605.9135	405.5342
606.0717	402.6694
606.2297	398.9713
606.3878	395.7556
606.5459	393.6963
606.704	401.4503
606.8621	404.2937
607.0201	403.6308
607.1782	410.3923
607.3362	405.8972
607.4943	413.6047
607.6523	414.2402
607.8104	415.6187
607.9684	400.6693
608.1264	400.928
608.2844	398.405
608.4424	394.0806
608.6003	390.3107
608.7584	390.1363
608.9163	389.8392
609.0743	381.4032
609.2322	392.6731
609.3902	397.6473
609.5482	389.8885
609.7061	386.8374
609.864	395.4323
610.0219	396.2912
610.1798	387.2798
610.3377	378.0847
610.4956	369.1476
610.6535	379.29
610.8114	376.4478
610.9693	380.2767
611.1271	386.2863
611.285	396.7786
611.4429	379.8499
611.6007	377.0308
611.7585	380.5758
611.9164	377.9845
612.0742	375.0344
612.232	367.7509
612.3898	375.8667
612.5476	381.2445
612.7054	374.1528
612.8632	374.661
613.0209	377.2888
613.1787	377.8327
613.3365	372.1736
613.4942	372.1641
613.652	369.0032
613.8097	355.5227
613.9674	355.3273
614.1252	366.168
614.2829	362.2585
614.4406	364.1699
614.5983	372.2446
614.756	384.6871
614.9136	377.1876
615.0714	371.8918
615.229	374.5186
615.3867	370.9279
615.5443	370.5417
615.702	369.4974
615.8596	363.697
616.0172	353.2488
616.1748	348.7469
616.3325	346.7056
616.4901	353.7687
616.6476	361.7295
616.8052	350.5288
616.9628	355.1625
617.1204	358.0356
617.278	357.6894
617.4355	356.4994
617.5931	360.1688
617.7506	365.7205
617.9081	362.899
618.0657	363.9807
618.2232	364.3612
618.3807	368.6564
618.5382	361.7605
618.6957	355.7509
618.8532	352.975
619.0107	353.9116
619.1682	354.5295
619.3256	350.6966
619.4831	356.6313
619.6406	359.5189
619.798	365.0844
619.9554	362.7279
620.1129	356.6551
620.2703	359.0271
620.4277	356.1472
620.5851	361.709
620.7425	367.5432
620.8998	355.886
621.0573	355.8243
621.2146	352.0284
621.372	348.7682
621.5294	347.1287
621.6867	346.8393
621.8441	347.4666
622.0013	349.5961
622.1587	343.894
622.316	342.9392
622.4733	344.8965
622.6306	347.1879
622.7879	344.8936
622.9452	348.0134
623.1025	345.941
623.2598	346.2016
623.4171	343.6719
623.5743	350.3199
623.7316	351.4022
623.8888	356.2314
624.046	348.4261
624.2032	343.6231
624.3605	339.6628
624.5176	336.1225
624.6749	339.3928
624.8321	345.1342
624.9893	339.8083
625.1464	338.8787
625.3036	337.9891
625.4608	329.4136
625.6179	334.3604
625.7751	334.8611
625.9322	336.7495
626.0894	337.6881
626.2465	339.7325
626.4036	342.0999
626.5607	332.1091
626.7178	338.0374
626.8749	342.4461
627.032	347.7698
627.189	338.1561
627.3461	329.8394
627.5032	335.741
627.6602	326.3759
627.8173	320.5066
627.9743	319.497
628.1313	322.5499
628.2884	321.0543
628.4454	328.0258
628.6024	329.3626
628.7594	338.4517
628.9164	341.9293
629.0734	330.1118
629.2303	336.0467
629.3873	322.9968
629.5443	325.6432
629.7012	327.4803
629.8582	317.7488
630.0151	322.8705
630.172	311.3228
630.3289	320.1213
630.4858	330.4496
630.6428	324.2539
630.7996	333.2457
630.9565	331.9842
631.1134	326.8692
631.2703	325.5841
631.4272	318.8423
631.584	319.1686
631.7408	320.0772
631.8977	315.7359
632.0546	322.3176
632.2114	332.9533
632.3682	331.1089
632.525	333.0864
632.6818	330.7233
632.8386	330.9367
632.9954	331.1674
633.1522	325.5111
633.3089	325.806
633.4657	320.9141
633.6224	323.3481
633.7792	324.1745
633.9359	317.0922
634.0927	324.4763
634.2494	328.7793
634.4061	321.5329
634.5628	325.4623
634.7195	323.7651
634.8762	315.567
635.0329	320.3671
635.1895	326.5682
635.3462	326.668
635.5029	324.0406
635.6595	318.5536
635.8162	313.5378
635.9728	313.5414
636.1295	317.0177
636.2861	314.9674
636.4427	317.2818
636.5992	324.6603
636.7559	322.3473
636.9124	318.4436
637.069	315.1372
637.2256	317.5145
637.3821	326.5804
637.5387	329.4268
637.6953	326.0537
637.8518	315.3911
638.0084	308.4305
638.1649	318.1575
638.3214	327.6477
638.4779	321.2982
638.6344	313.4925
638.7909	316.7646
638.9474	308.1842
639.1038	312.3057
639.2603	317.8346
639.4167	315.7441
639.5732	313.8237
639.7297	308.5741
639.8861	305.6444
640.0425	301.7991
640.199	303.4719
640.3553	303.2897
640.5118	304.9708
640.6682	303.9143
640.8245	299.3847
640.981	297.178
641.1373	304.4825
641.2936	299.415
641.45	300.5025
641.6064	303.0399
641.7627	301.2996
641.9191	299.9643
642.0754	297.3205
642.2317	298.0516
642.388	298.4536
642.5443	299.7844
642.7006	304.9604
642.8569	298.1207
643.0131	303.9041
643.1694	303.7975
643.3257	298.6648
643.4819	300.3053
643.6382	300.5986
643.7944	293.6845
643.9506	288.6306
644.1069	295.5151
644.2631	297.1332
644.4193	293.7707
644.5754	294.442
644.7316	302.6951
644.8878	297.7291
645.044	281.3114
645.2002	289.2482
645.3563	298.9674
645.5125	291.5814
645.6686	290.0652
645.8248	290.3702
645.9809	286.9535
646.137	279.83
646.2931	277.4262
646.4492	283.2718
646.6053	283.4216
646.7614	291.2673
646.9174	289.6725
647.0735	288.819
647.2296	284.1053
647.3856	285.1466
647.5417	284.2467
647.6977	279.3497
647.8537	282.0323
648.0098	280.4078
648.1658	277.7789
648.3218	272.0708
648.4777	273.2979
648.6337	280.6544
648.7897	283.7031
648.9457	283.1447
649.1016	282.0169
649.2576	273.0732
649.4135	264.2575
649.5695	261.516
649.7254	263.6506
649.8813	266.4026
650.0372	270.4207
650.1932	277.8054
650.3491	281.4073
650.5049	286.0494
650.6608	284.481
650.8167	277.5633
650.9725	289.7395
651.1284	288.4904
651.2842	281.4586
651.4401	274.9014
651.5959	270.0565
651.7518	258.8206
651.9076	261.8313
652.0634	269.2112
652.2192	276.1869
652.3749	273.5605
652.5308	273.2353
652.6865	287.8276
652.8423	274.4231
652.998	266.7137
653.1538	268.2272
653.3096	278.4725
653.4653	274.1815
653.621	267.7168
653.7767	273.0406
653.9324	288.2251
654.0881	277.3647
654.2438	279.3892
654.3995	272.6437
654.5552	267.4507
654.7109	269.5494
654.8665	268.3648
655.0222	266.2313
655.1778	262.0705
655.3334	264.0794
655.4891	256.7731
655.6447	253.6293
655.8003	247.6871
655.9559	238.8274
656.1115	219.0988
656.2671	208.2634
656.4227	212.7113
656.5782	220.779
656.7338	233.4598
656.8893	249.9397
657.0449	254.5724
657.2004	257.3051
657.356	258.3299
657.5115	261.1485
657.667	256.7222
657.8225	255.6067
657.978	264.5096
658.1335	267.7321
658.289	267.1282
658.4445	260.3328
658.5999	259.551
658.7554	259.8036
658.9108	257.6246
659.0663	266.7333
659.2217	266.0206
659.3771	257.3747
659.5325	257.1509
659.6879	263.145
659.8433	264.1494
659.9987	261.5005
660.1541	269.2849
660.3095	262.1544
660.4648	267.6837
660.6202	269.9879
660.7756	263.3648
660.9309	268.1489
661.0862	263.2508
661.2416	256.9326
661.3969	259.0351
661.5522	262.9914
661.7075	273.3331
661.8628	268.5127
662.0181	267.548
662.1733	262.1103
662.3286	266.2598
662.4839	269.6834
662.6391	265.7314
662.7944	260.3365
662.9496	257.4628
663.1048	267.6034
663.26	256.2928
663.4152	253.0932
663.5704	251.2693
663.7256	260.4921
663.8808	257.5435
664.036	262.6179
664.1912	265.7964
664.3463	262.907
664.5015	258.4797
664.6566	267.9314
664.8118	262.0845
664.9669	261.971
665.122	271.1825
665.2771	260.6597
665.4322	254.0403
665.5873	261.6881
665.7424	261.8509
665.8975	260.5729
666.0526	255.2879
666.2076	260.6079
666.3627	252.0765
666.5177	255.9047
666.6727	258.6804
666.8278	259.8648
666.9828	261.5359
667.1378	261.5099
667.2928	265.8064
667.4478	266.8746
667.6028	261.9916
667.7578	258.3234
667.9127	253.7186
668.0677	251.4325
668.2226	257.0605
668.3776	259.4135
668.5325	256.2973
668.6874	263.8114
668.8423	252.8322
668.9973	257.6014
669.1522	253.0684
669.3071	257.2333
669.4619	249.9971
669.6168	250.4982
669.7717	249.8845
669.9265	249.7999
670.0814	257.419
670.2362	250.8957
670.3911	250.9095
670.5459	247.1266
670.7007	248.6434
670.8555	252.1342
671.0103	255.1282
671.1651	247.4471
671.3199	249.2315
671.4747	247.2853
671.6295	247.726
671.7842	247.6172
671.939	243.2623
672.0937	247.7519
672.2484	248.1628
672.4031	248.6183
672.5579	244.8465
672.7126	248.5177
672.8673	254.5811
673.022	248.1668
673.1767	255.9074
673.3314	262.7936
673.486	250.2435
673.6407	244.5976
673.7953	248.7782
673.95	252.1612
674.1046	247.021
674.2592	239.63
674.4138	240.6272
674.5684	245.9168
674.723	243.9939
674.8776	237.6245
675.0322	234.7699
675.1868	243.002
675.3414	244.4135
675.4959	231.4304
675.6505	232.9361
675.805	240.6662
675.9595	240.3659
676.1141	234.5444
676.2686	233.0051
676.4231	243.3819
676.5776	236.2387
676.7321	236.1361
676.8866	233.6824
677.041	233.3431
677.1955	235.3501
677.35	235.3155
677.5044	223.9094
677.6589	237.026
677.8133	235.8341
677.9677	231.6212
678.1221	235.1256
678.2766	231.8964
678.4309	236.6071
678.5853	231.1458
678.7397	229.5917
678.8941	231.671
679.0485	228.449
679.2028	233.5552
679.3571	234.1897
679.5115	228.2838
679.6658	225.9333
679.8201	224.1971
679.9744	229.5513
680.1288	229.1887
680.2831	230.5378
680.4373	222.7867
680.5916	222.9317
680.7459	223.1474
680.9001	222.5639
681.0544	219.3981
681.2087	222.7822
681.3629	224.8489
681.5171	214.9552
681.6713	218.7281
681.8256	218.7704
681.9797	228.0705
682.134	221.4957
682.2881	227.3786
682.4423	220.1107
682.5965	218.6419
682.7507	220.2358
682.9048	218.7809
683.059	214.7968
683.2131	213.0981
683.3672	221.1967
683.5213	219.4421
683.6754	208.6164
683.8295	215.7234
683.9836	211.3196
684.1377	206.8771
684.2918	208.2
684.4459	203.9039
684.5999	210.2155
684.754	206.8915
684.908	210.4597
685.062	214.9201
685.2161	213.0135
685.3701	212.504
685.5241	203.5257
685.6781	203.281
685.8321	213.3828
685.9861	208.1109
686.14	201.5839
686.294	203.4962
686.4479	210.3696
686.6019	200.6136
686.7559	184.1444
686.9098	167.6962
687.0637	162.2026
687.2176	158.5842
687.3715	166.2535
687.5254	160.1944
687.6793	164.6443
687.8332	174.1083
687.9871	185.6553
688.1409	183.2077
688.2947	187.8389
688.4486	186.9413
688.6024	186.9787
688.7563	175.0796
688.9101	174.2614
689.0639	173.744
689.2177	173.8112
689.3715	175.4853
689.5253	179.1841
689.6791	184.4966
689.8328	179.4051
689.9866	176.4911
690.1403	179.5364
690.2941	183.5107
690.4478	188.2762
690.6015	184.0287
690.7552	185.7368
690.9089	183.704
691.0626	186.4669
691.2164	187.4194
691.37	186.6393
691.5237	186.584
691.6774	185.1441
691.831	189.4267
691.9847	189.3684
692.1383	193.9605
692.2919	186.0995
692.4456	188.0237
692.5992	180.344
692.7527	176.9541
692.9064	185.9779
693.0599	188.2586
693.2136	186.5517
693.3671	184.455
693.5207	177.1682
693.6742	185.5791
693.8278	181.565
693.9813	176.1624
694.1348	173.7256
694.2883	179.4576
694.4418	184.5497
694.5953	179.768
694.7488	179.0616
694.9023	176.6583
695.0558	181.0792
695.2093	179.7978
695.3627	183.1322
695.5162	179.7702
695.6696	179.0742
695.8231	175.5661
695.9764	173.7576
696.1299	181.0235
696.2833	185.5862
696.4367	182.9455
696.5901	181.6452
696.7435	187.3327
696.8968	182.7912
697.0502	181.4949
697.2036	187.0981
697.3569	190.9215
697.5102	190.1443
697.6635	185.4711
697.8168	180.4203
697.9702	171.9693
698.1235	179.3477
698.2768	181.1523
698.4301	182.326
698.5833	179.2978
698.7366	179.4174
698.8898	177.2584
699.0431	174.7155
699.1964	170.5829
699.3495	177.7332
699.5028	183.6136
699.656	176.9574
699.8092	180.5984
699.9624	182.1843
700.1156	174.0194
700.2688	174.7423
700.4219	171.2399
700.5751	172.1149
700.7283	172.0804
700.8814	166.2719
701.0345	172.9167
701.1877	183.5453
701.3408	176.9276
701.4939	176.6466
701.647	177.9228
701.8001	165.6711
701.9532	174.4541
702.1063	176.5485
702.2593	178.8382
702.4124	168.3614
702.5654	164.6149
702.7184	166.0003
702.8715	174.1161
703.0245	178.0025
703.1776	170.5432
703.3305	175.2999
703.4835	174.3822
703.6365	178.8936
703.7895	171.9732
703.9424	178.1047
704.0954	171.3176
704.2484	176.3752
704.4013	181.7582
704.5543	176.1588
704.7072	174.4942
704.8601	179.8951
705.013	171.254
705.1659	172.5455
705.3188	173.1836
705.4717	174.3129
705.6246	174.6819
705.7774	174.098
705.9303	172.25
706.0831	175.4308
706.236	171.5268
706.3888	173.7661
706.5416	170.5283
706.6944	169.4267
706.8472	175.605
707	180.7307
707.1528	173.5046
707.3056	173.9875
707.4583	174.2425
707.6111	181.3371
707.7639	174.0673
707.9166	176.2441
708.0693	176.9045
708.222	175.1828
708.3748	177.0464
708.5275	171.714
708.6802	168.2982
708.8328	165.762
708.9855	163.4085
709.1382	176.0813
709.2909	180.8641
709.4435	177.3724
709.5962	168.5677
709.7488	170.2792
709.9014	166.8737
710.054	165.9238
710.2067	165.4748
710.3593	163.1006
710.5118	173.3137
710.6644	171.542
710.817	170.6487
710.9695	171.2634
711.1221	173.4755
711.2747	173.7457
711.4272	172.4484
711.5797	170.781
711.7322	169.4301
711.8848	171.6783
712.0373	172.9409
712.1898	163.0407
712.3422	167.6575
712.4948	168.7817
712.6472	173.4612
712.7996	175.0743
712.9521	166.3569
713.1046	164.9056
713.257	166.602
713.4094	164.5626
713.5618	164.5577
713.7142	158.3493
713.8666	162.1615
714.019	166.6953
714.1714	168.9653
714.3237	163.0309
714.4761	162.9197
714.6285	158.0513
714.7808	156.1029
714.9331	155.3384
715.0854	160.129
715.2378	163.3814
715.3901	162.4106
715.5424	163.5253
715.6947	157.8262
715.8469	155.7626
715.9992	158.2759
716.1515	153.5207
716.3037	155.651
716.456	153.4868
716.6082	152.1237
716.7604	148.7323
716.9127	146.6865
717.0649	149.5792
717.2171	143.9356
717.3693	142.446
717.5214	141.4697
717.6736	145.904
717.8258	140.5214
717.978	139.3444
718.1301	142.0244
718.2822	136.6805
718.4344	134.4169
718.5865	127.5779
718.7386	128.4764
718.8907	134.8744
719.0428	135.3004
719.1949	133.177
719.3469	129.2536
719.499	138.8113
719.6511	139.4554
719.8031	133.0143
719.9551	134.0782
720.1072	131.8671
720.2592	124.4525
720.4112	132.5038
720.5632	133.4882
720.7152	141.4088
720.8672	140.5943
721.0192	140.7336
721.1711	140.7982
721.3231	146.0029
721.475	147.7413
721.627	144.037
721.7789	146.8102
721.9308	149.1854
722.0828	151.7236
722.2347	155.5006
722.3866	148.5334
722.5385	146.6111
722.6903	154.7909
722.8422	147.9337
722.9941	144.0967
723.1459	139.4207
723.2977	131.3216
723.4496	132.3267
723.6014	130.1632
723.7532	129.115
723.905	135.5995
724.0568	130.7848
724.2086	128.1068
724.3604	133.2396
724.5121	132.9698
724.6639	141.8363
724.8157	142.5166
724.9674	128.6451
725.1191	132.8768
725.2709	126.2649
725.4226	126.7922
725.5743	133.2056
725.726	136.0314
725.8777	134.8247
726.0294	134.965
726.181	131.0121
726.3327	131.2755
726.4844	129.7976
726.636	136.2816
726.7877	142.0542
726.9393	145.0716
727.0909	141.1088
727.2425	131.9484
727.3941	130.4818
727.5457	124.1319
727.6973	122.4942
727.8488	119.9671
728.0004	126.4718
728.1519	129.1852
728.3035	140.0256
728.455	133.0215
728.6066	140.3857
728.7581	132.7787
728.9095	127.1865
729.0611	124.5226
729.2126	119.7701
729.364	119.5605
729.5155	129.6479
729.667	139.3957
729.8184	133.0632
729.9698	127.7607
730.1213	137.2053
730.2727	129.8412
730.4241	127.7913
730.5756	127.7739
730.7269	132.6184
730.8784	129.288
731.0297	128.7366
731.1811	126.0053
731.3325	124.0134
731.4838	127.8688
731.6351	133.1545
731.7865	133.4413
731.9378	133.9908
732.0891	136.8785
732.2404	136.8423
732.3917	141.3155
732.543	139.3104
732.6943	139.9915
732.8456	138.162
732.9968	141.2314
733.1481	138.3376
733.2993	135.927
733.4506	136.6884
733.6018	137.8823
733.753	142.5952
733.9042	143.3006
734.0554	141.4129
734.2066	138.603
734.3578	139.4028
734.509	136.6976
734.6602	140.0826
734.8113	143.4972
734.9624	138.1558
735.1136	138.0688
735.2647	138.5306
735.4158	132.4199
735.5669	135.6115
735.718	138.8021
735.8691	138.1055
736.0201	138.8581
736.1713	134.8507
736.3223	133.9357
736.4733	134.2079
736.6244	141.0443
736.7755	139.2418
736.9265	133.8279
737.0775	141.0669
737.2285	143.483
737.3795	138.1464
737.5305	139.1054
737.6815	141.1736
737.8324	138.1474
737.9834	140.2547
738.1343	137.4797
738.2853	137.603
738.4362	128.02
738.5871	133.6718
738.738	131.4234
738.8889	129.5689
739.0399	135.6438
739.1907	133.5387
739.3416	133.1775
739.4925	134.7856
739.6433	137.6167
739.7942	132.7508
739.945	129.3568
740.0958	137.4601
740.2467	135.6961
740.3975	139.6915
740.5483	147.0596
740.6991	134.486
740.8499	125.9403
741.0007	126.6866
741.1514	134.8329
741.3022	139.5022
741.4529	126.0919
741.6036	126.8438
741.7544	129.5379
741.9051	131.7197
742.0558	128.5528
742.2065	130.215
742.3572	128.8178
742.5079	123.2927
742.6586	128.5259
742.8093	135.3796
742.9599	136.4361
743.1105	132.0452
743.2612	136.0642
743.4118	129.4993
743.5624	126.2078
743.7131	128.8688
743.8636	129.5789
744.0142	131.6557
744.1648	136.2955
744.3154	133.3931
744.4659	131.7218
744.6165	127.6923
744.767	127.6525
744.9176	135.5143
745.0681	128.4673
745.2186	129.5011
745.3691	129.7624
745.5197	128.7722
745.6702	130.022
745.8206	131.6061
745.9711	128.9444
746.1215	124.2267
746.272	120.008
746.4224	127.1876
746.5729	127.1313
746.7233	125.6054
746.8737	128.8606
747.0241	123.0495
747.1745	123.98
747.3249	122.4823
747.4753	130.8422
747.6257	129.5559
747.776	121.3534
747.9264	120.6324
748.0767	119.219
748.2271	127.5076
748.3774	130.3529
748.5276	122.9222
748.678	116.4184
748.8282	124.6966
748.9786	122.4063
749.1288	121.9739
749.2791	122.0943
749.4294	120.8414
749.5796	124.363
749.7299	123.8964
749.8801	119.202
750.0303	123.1421
750.1805	124.3049
750.3307	121.6866
750.4809	125.0553
750.6311	122.3315
750.7813	121.3114
750.9314	116.2032
751.0816	116.6336
751.2318	119.1235
751.3818	119.5705
751.532	117.8321
751.6821	113.8908
751.8322	118.4924
751.9823	118.5352
752.1324	112.8821
752.2825	120.8358
752.4326	121.8086
752.5826	115.7515
752.7327	115.0544
752.8827	114.8786
753.0327	115.6302
753.1827	110.4206
753.3328	112.2259
753.4828	114.4811
753.6328	120.331
753.7828	117.4464
753.9327	116.5656
754.0827	119.6942
754.2327	116.1772
754.3826	114.2064
754.5325	115.6114
754.6825	117.0025
754.8324	116.4155
754.9823	110.6927
755.1322	114.8818
755.2821	119.3076
755.432	116.1643
755.5818	112.2791
755.7318	108.4078
755.8816	107.9251
756.0314	110.4238
756.1813	115.2202
756.3311	116.737
756.4809	113.7459
756.6307	108.7754
756.7805	110.2561
756.9303	113.4028
757.0801	110.312
757.2299	107.0753
757.3796	111.1355
757.5294	113.5978
757.6791	110.9726
757.8289	110.5374
757.9786	112.3064
758.1283	109.5844
758.278	103.9742
758.4277	105.9088
758.5773	105.8809
758.7271	104.3349
758.8767	100.733
759.0264	105.2221
759.176	101.7737
759.3256	91.09942
759.4753	78.45044
759.6249	73.7136
759.7745	62.23294
759.9241	58.45039
760.0737	53.58903
760.2233	57.19198
760.3729	53.95712
760.5224	51.34866
760.6719	52.57516
760.8215	56.6843
760.971	55.00505
761.1205	53.31895
761.2701	52.74227
761.4196	60.18898
761.5691	67.1096
761.7186	75.33844
761.868	83.80497
762.0175	84.76171
762.167	80.03835
762.3164	76.39397
762.4659	67.1451
762.6153	62.37094
762.7647	64.2488
762.9141	63.75032
763.0635	67.38572
763.2129	67.55891
763.3623	66.54913
763.5117	67.36711
763.661	63.1055
763.8104	63.68733
763.9597	70.00095
764.1091	68.95125
764.2584	65.54346
764.4077	68.14948
764.557	68.08282
764.7063	72.68473
764.8556	72.59704
765.0049	78.2724
765.1541	75.92728
765.3034	72.82257
765.4526	78.30923
765.6019	79.19505
765.7511	82.65767
765.9003	86.21001
766.0496	84.56547
766.1987	84.73183
766.348	86.1382
766.4971	89.52312
766.6463	91.88924
766.7955	86.74164
766.9446	86.34394
767.0938	86.18585
767.2429	90.25905
767.392	97.34185
767.5411	88.59396
767.6902	89.33134
767.8394	89.32832
767.9884	92.77287
768.1375	93.9539
768.2866	94.41441
768.4356	89.0611
768.5847	88.95685
768.7337	94.73554
768.8828	90.73444
769.0317	88.72069
769.1808	88.03666
769.3298	96.1737
769.4788	99.64419
769.6277	94.57606
769.7767	91.62024
769.9257	92.43253
770.0746	90.87283
770.2236	87.32098
770.3725	97.06348
770.5214	89.40562
770.6703	93.81409
770.8193	97.12727
770.9681	93.66374
771.1171	86.42501
771.2659	88.94942
771.4148	84.57868
771.5637	86.30801
771.7125	91.53216
771.8613	91.39833
772.0101	98.90718
772.159	92.38118
772.3078	90.2638
772.4566	82.72466
772.6054	86.22988
772.7542	90.52585
772.903	91.12102
773.0517	91.11816
773.2004	88.52493
773.3492	84.12336
773.4979	84.64316
773.6467	91.58665
773.7953	87.45652
773.944	84.40964
774.0928	86.11506
774.2415	84.81712
774.3901	85.06106
774.5388	93.16148
774.6874	92.09821
774.8361	84.68441
774.9847	87.76072
775.1334	88.75786
775.282	86.43586
775.4305	82.99251
775.5792	79.82767
775.7277	82.74554
775.8763	88.94306
776.0249	88.0149
776.1735	83.57801
776.322	88.37322
776.4705	87.61629
776.6191	86.97926
776.7676	86.66599
776.9161	82.56106
777.0646	83.11992
777.2131	85.27402
777.3616	84.1155
777.5101	85.92464
777.6585	83.3668
777.8069	84.77834
777.9554	85.31154
778.1038	80.05103
778.2523	79.32301
778.4007	81.9613
778.5491	83.34022
778.6974	81.50787
778.8459	81.4896
778.9942	81.81362
779.1426	79.36265
779.291	82.35465
779.4393	80.85835
779.5876	83.56332
779.736	80.94283
779.8843	79.01353
780.0326	78.51381
780.1809	83.20571
780.3292	88.43059
780.4775	84.10978
780.6257	82.8467
780.774	82.32784
780.9222	83.67842
781.0704	78.64148
781.2187	83.07591
781.3669	80.00372
781.5151	77.12263
781.6633	84.09229
781.8115	76.6936
781.9597	81.01534
782.1078	80.75495
782.256	82.30953
782.4042	82.17175
782.5523	77.1491
782.7004	79.94874
782.8486	79.64508
782.9967	77.98397
783.1448	76.93394
783.2929	77.97124
783.441	77.43374
783.5891	81.90012
783.7371	77.38082
783.8851	77.24262
784.0332	74.50365
784.1812	79.59023
784.3293	79.93027
784.4773	78.7454
784.6253	80.70946
784.7733	80.71722
784.9213	83.13148
785.0692	79.22725
785.2172	77.52436
785.3652	75.59981
785.5131	71.33728
785.6611	76.10057
785.809	79.82757
785.9569	79.57708
786.1048	73.26421
786.2527	76.36822
786.4006	77.83143
786.5485	74.48862
786.6964	78.30172
786.8442	72.76974
786.9921	74.5002
787.1399	68.82249
787.2877	70.20549
787.4355	74.11503
787.5833	80.9329
787.7311	74.78545
787.8789	72.77419
788.0267	73.22118
788.1745	76.56142
788.3223	78.1049
788.47	72.23349
788.6177	74.7861
788.7654	69.92873
788.9132	75.84209
789.0609	75.62734
789.2086	76.98747
789.3563	79.34206
789.504	79.5172
789.6517	74.37957
789.7993	70.14852
789.947	75.15601
790.0946	71.4521
790.2422	72.21376
790.3898	71.1776
790.5375	74.03743
790.6851	72.82405
790.8326	68.22318
790.9802	65.71838
791.1278	66.80992
791.2754	73.78358
791.423	75.87612
791.5705	76.74999
791.718	71.21656
791.8655	70.12817
792.0131	69.10094
792.1606	70.05733
792.308	62.57653
792.4556	63.00254
792.603	74.27344
792.7505	69.67511
792.8979	65.22142
793.0454	67.71081
793.1928	68.10485
793.3403	75.06447
793.4877	71.99213
793.6351	69.11704
793.7825	64.0065
793.9299	65.50634
794.0772	71.17223
794.2246	72.64464
794.3719	70.15298
794.5193	67.35124
794.6666	65.12164
794.814	69.96236
794.9613	72.76775
795.1086	71.37587
795.2559	70.19572
795.4032	66.68636
795.5505	68.13015
795.6978	70.05911
795.845	71.54054
795.9922	66.72865
796.1395	69.10883
796.2867	68.21238
796.4339	67.43118
796.5811	68.62269
796.7283	66.59504
796.8755	70.73389
797.0227	73.99959
797.1699	69.04404
797.317	67.95987
797.4642	71.23254
797.6113	71.79491
797.7584	66.96957
797.9056	72.32001
798.0527	68.28053
798.1998	63.02787
798.3469	61.7541
798.494	68.12432
798.641	64.37695
798.7881	67.10169
798.9351	67.31987
799.0822	68.95716
799.2292	63.89282
799.3762	67.04342
799.5232	61.89145
799.6702	64.41234
799.8172	64.71347
799.9642	63.88294
800.1111	63.43236
800.2581	65.89579
800.4051	67.27354
800.552	65.50149
800.6989	62.3315
800.8458	65.4237
800.9927	63.55976
801.1396	62.71192
801.2866	63.85157
801.4334	66.47272
801.5803	63.19032
801.7272	68.65269
801.874	64.12061
802.0209	64.99213
802.1677	61.35271
802.3145	61.76004
802.4613	64.43179
802.6081	69.51464
802.7549	64.92677
802.9017	61.79665
803.0485	58.76879
803.1952	57.15332
803.342	64.49433
803.4887	65.74049
803.6354	65.03211
803.7822	67.81968
803.9289	63.7386
804.0756	56.27273
804.2223	57.79843
804.369	64.72047
804.5156	62.57369
804.6623	60.15105
804.8089	59.2496
804.9556	62.78537
805.1022	60.17716
805.2488	60.22441
805.3954	62.05936
805.542	54.89653
805.6886	63.93797
805.8352	62.59
805.9818	59.64899
806.1283	59.73154
806.2749	59.80111
806.4214	59.35925
806.5679	59.88996
806.7145	60.72838
806.861	60.10158
807.0074	58.60383
807.154	60.26641
807.3004	63.4152
807.4469	56.83427
807.5934	61.3982
807.7398	59.83024
807.8862	56.80098
808.0327	57.81371
808.1791	56.05359
808.3255	53.55447
808.4719	56.98305
808.6183	61.79202
808.7647	52.35291
808.9111	54.6607
809.0574	57.92683
809.2037	51.5038
809.3501	55.04012
809.4965	55.64547
809.6428	56.27086
809.7891	54.41852
809.9354	56.65569
810.0817	55.95022
810.2279	54.12218
810.3742	54.83841
810.5204	59.63227
810.6667	61.24482
810.8129	57.13665
810.9592	55.21679
811.1054	59.67773
811.2516	55.36037
811.3978	54.23822
811.5439	54.12002
811.6901	47.82751
811.8363	50.14086
811.9825	57.92794
812.1286	57.57575
812.2748	51.32098
812.4209	54.01363
812.567	55.55043
812.7131	52.91372
812.8592	55.48838
813.0053	53.1486
813.1514	54.0522
813.2974	51.57458
813.4435	48.56025
813.5895	52.02805
813.7356	46.68687
813.8816	51.45029
814.0276	57.83187
814.1736	49.38356
814.3196	45.17464
814.4656	48.23783
814.6116	50.78557
814.7576	51.83775
814.9035	50.00466
815.0494	47.4118
815.1954	44.32749
815.3413	44.45812
815.4872	44.10948
815.6331	49.71098
815.779	47.49665
815.9249	47.32969
816.0707	45.38767
816.2166	45.75901
816.3625	48.68714
816.5083	47.4929
816.6542	51.07411
816.8	51.84921
816.9458	46.51785
817.0916	44.90059
817.2374	46.35823
817.3832	47.14722
817.5289	43.966
817.6747	47.5308
817.8204	42.61153
817.9662	44.30076
818.1119	47.50928
818.2576	50.02831
818.4034	46.55766
818.5491	49.7589
818.6948	42.09018
818.8405	42.56184
818.9861	46.25924
819.1318	45.85307
819.2774	42.49624
819.423	40.40611
819.5687	41.2741
819.7143	42.91317
819.8599	42.53409
820.0055	41.32542
820.1511	45.70924
820.2967	48.459
820.4422	45.57012
820.5878	45.04329
820.7333	50.16365
820.8788	50.84086
821.0244	41.22345
821.1699	44.38564
821.3154	47.74649
821.4609	46.18135
821.6064	44.67723
821.7519	45.24104
821.8973	43.82211
822.0428	44.10115
822.1882	43.61889
822.3337	43.50294
822.4791	41.25425
822.6245	42.30494
822.7699	36.73982
822.9153	34.30819
823.0607	35.4627
823.2061	33.4908
823.3514	37.53923
823.4968	43.99675
823.6422	47.14066
823.7875	42.67896
823.9328	43.12527
824.0781	46.41514
824.2234	41.57532
824.3687	37.40434
824.514	41.9551
824.6592	45.88784
824.8045	47.99078
824.9498	43.16343
825.095	43.48649
825.2402	48.64319
825.3854	44.51363
825.5306	46.08856
825.6758	46.22435
825.821	41.80548
825.9662	47.50766
826.1114	47.92315
826.2565	43.54031
826.4017	39.29107
826.5468	42.53244
826.692	46.87444
826.837	50.64293
826.9822	47.95961
827.1273	42.35213
827.2723	39.54044
827.4174	41.54223
827.5625	38.34278
827.7075	37.30153
827.8526	39.31696
827.9976	41.74628
828.1426	41.28315
828.2877	39.55573
828.4327	44.42669
828.5776	38.31234
828.7227	41.03288
828.8676	42.69134
829.0126	35.12333
829.1575	43.40643
829.3024	42.18753
829.4474	35.96682
829.5923	38.80954
829.7372	37.39641
829.8821	40.53356
830.027	42.49249
830.1719	45.77485
830.3168	45.47472
830.4616	39.24604
830.6064	40.40678
830.7513	44.61895
830.8961	46.36583
831.041	45.28441
831.1857	44.65496
831.3306	42.2883
831.4753	37.94592
831.6201	39.19942
831.7649	43.96321
831.9096	46.10036
832.0544	37.89481
832.1991	40.35706
832.3438	42.39749
832.4885	40.95343
832.6332	42.39108
832.778	43.41453
832.9226	40.27785
833.0673	39.85154
833.2119	36.72846
833.3566	36.61108
833.5012	38.63224
833.6459	38.26838
833.7905	38.77372
833.9351	40.64445
834.0797	41.94329
834.2243	40.96097
834.3688	39.39256
834.5134	39.01483
834.658	45.12848
834.8026	41.62978
834.9471	38.74027
835.0916	37.8036
835.2361	36.8051
835.3806	38.30559
835.5251	42.13837
835.6696	41.4216
835.8141	37.34255
835.9586	38.39534
836.103	36.49028
836.2474	36.72234
836.3918	38.67939
836.5363	40.79336
836.6807	44.76913
836.8251	39.9254
836.9695	43.9336
837.1138	37.83657
837.2582	41.4621
837.4026	39.25027
837.5469	40.53833
837.6913	37.01643
837.8356	40.52784
837.9799	40.4671
838.1242	42.10234
838.2686	39.07745
838.4128	41.31049
838.5571	36.47254
838.7014	34.68141
838.8456	36.38099
838.9899	42.78542
839.1341	42.67327
839.2783	38.34279
839.4225	38.19342
839.5667	41.34091
839.7109	37.83669
839.8551	37.51751
839.9993	38.55587
840.1434	37.09475
840.2876	36.30061
840.4317	36.64415
840.5759	38.56657
840.72	39.60461
840.8641	39.56272
841.0082	39.0154
841.1523	34.51954
841.2963	33.88879
841.4404	35.51601
841.5845	30.21593
841.7285	35.37473
841.8726	34.82788
842.0165	40.08471
842.1606	38.20304
842.3046	33.80785
842.4485	39.72475
842.5925	39.69991
842.7365	40.34229
842.8805	40.47943
843.0244	33.37629
843.1684	32.98888
843.3123	31.36174
843.4562	34.06993
843.6002	38.76723
843.744	37.56848
843.8879	32.09661
844.0318	36.62284
844.1757	32.9619
844.3195	30.98096
844.4634	37.72133
844.6072	37.87659
844.751	37.03988
844.8948	40.73269
845.0386	39.23847
845.1824	41.92306
845.3262	32.90421
845.47	30.55687
845.6138	38.66089
845.7575	37.93523
845.9012	37.03791
846.045	36.81339
846.1887	37.85548
846.3324	35.3399
846.4761	35.09008
846.6198	38.52914
846.7635	41.40661
846.9071	40.79147
847.0508	39.95631
847.1944	34.34674
847.3381	39.00513
847.4817	38.11208
847.6253	39.72
847.7689	34.58046
847.9125	37.77564
848.0561	38.186
848.1996	33.24508
848.3432	34.47264
848.4868	36.58598
848.6303	40.27926
848.7738	36.14279
848.9174	33.32394
849.0609	34.2489
849.2043	36.68047
849.3478	34.75359
849.4913	37.35587
849.6348	34.07401
849.7782	33.2911
849.9217	33.24973
850.0651	31.83746
850.2086	36.26686
850.3519	35.62573
850.4954	34.31063
850.6387	33.91451
850.7821	34.3698
850.9255	35.73582
851.0688	37.76822
851.2122	36.07073
851.3555	32.35899
851.4988	33.56547
851.6422	33.08433
851.7855	34.292
851.9288	34.06137
852.0721	37.98516
852.2153	33.3388
852.3586	31.74251
852.5018	37.44827
852.6451	40.12545
852.7883	35.95079
852.9315	33.63485
853.0748	28.82552
853.218	28.15996
853.3611	32.50042
853.5043	34.24973
853.6475	31.75713
853.7906	31.06441
853.9338	29.30948
854.0769	26.99291
854.22	28.32245
854.3632	28.96141
854.5063	27.55416
854.6494	31.85874
854.7924	32.53071
854.9355	33.59251
855.0786	35.24726
855.2216	32.19041
855.3647	36.18951
855.5077	33.00553
855.6507	30.98129
855.7937	30.0313
855.9367	26.90495
856.0797	29.07878
856.2227	31.83215
856.3657	33.19543
856.5086	33.33501
856.6516	35.8168
856.7945	32.74203
856.9374	38.72852
857.0803	38.1155
857.2232	31.16681
857.3661	31.70099
857.509	30.81368
857.6519	30.52054
857.7947	34.5627
857.9376	36.23819
858.0804	34.94213
858.2232	36.08716
858.366	35.85925
858.5089	31.3537
858.6516	31.73944
858.7944	35.39498
858.9372	32.86985
859.08	36.00591
859.2227	32.53758
859.3654	32.81551
859.5082	34.51925
859.6509	30.55276
859.7936	29.13562
859.9363	28.64644
860.079	31.37064
860.2217	29.19119
860.3643	29.74046
860.507	32.2054
860.6496	34.8299
860.7922	34.57527
860.9349	30.24741
861.0775	28.69409
861.2201	31.57277
861.3627	30.57154
861.5052	24.74519
861.6478	32.3212
861.7904	30.90703
861.9329	30.35637
862.0755	30.90536
862.218	29.64993
862.3605	29.82206
862.503	25.72078
862.6455	27.26497
862.788	27.87334
862.9305	27.2971
863.0729	29.64648
863.2154	28.34304
863.3578	26.63256
863.5002	26.89822
863.6426	25.54768
863.7851	27.70659
863.9275	33.97688
864.0698	30.53311
864.2122	30.10985
864.3546	29.23993
864.4969	34.75474
864.6393	26.90217
864.7816	32.22542
864.924	32.57429
865.0662	30.13575
865.2086	29.37713
865.3508	25.25382
865.4931	30.32832
865.6354	25.28972
865.7776	24.68865
865.9199	26.18534
866.0621	22.86464
866.2043	23.92059
866.3466	28.34609
866.4888	25.55071
866.6309	26.0853
866.7731	24.21083
866.9153	29.73824
867.0574	30.47006
867.1996	21.80174
867.3417	25.97369
867.4839	27.3146
867.626	28.01207
867.7681	29.25371
867.9102	33.31835
868.0522	28.62434
868.1943	32.47932
868.3364	31.77953
868.4785	28.09939
868.6205	26.43207
868.7625	28.61827
868.9045	25.43485
869.0465	28.621
869.1885	28.74505
869.3305	30.7684
869.4725	29.81393
869.6144	26.86487
869.7564	28.2946
869.8983	26.90124
870.0403	30.78013
870.1822	30.77305
870.3241	24.96482
870.466	27.85397
870.6079	29.76311
870.7498	30.78578
870.8916	24.44049
871.0335	24.65787
871.1754	23.36987
871.3171	32.4341
871.459	32.5888
871.6008	28.95844
871.7426	25.95839
871.8844	32.30457
872.0262	29.48573
872.1679	27.94832
872.3097	28.46537
872.4514	25.95164
872.5931	25.32553
872.7349	28.39771
872.8766	27.25721
873.0183	31.01922
873.16	25.90995
873.3017	28.64533
873.4434	24.04863
873.585	23.02766
873.7266	23.67818
873.8683	28.0268
874.0099	27.88768
874.1516	27.03779
874.2932	22.35864
874.4348	25.32038
874.5763	22.41718
874.7179	25.83494
874.8594	31.58176
875.001	30.66637
875.1425	26.97383
875.2841	24.30945
875.4256	21.90001
875.5671	23.07903
875.7086	26.87674
875.85	26.45278
875.9915	24.58248
876.133	25.98308
876.2744	22.9937
876.4159	20.00008
876.5573	25.92515
876.6987	22.61416
876.8401	25.68772
876.9815	28.36251
877.1229	25.6131
877.2643	28.58501
877.4056	25.06241
877.547	24.99786
877.6884	24.7309
877.8297	20.91418
877.971	21.05872
878.1123	24.38293
878.2536	24.49863
878.3949	22.29707
878.5362	22.57813
878.6774	24.70623
878.8187	20.62303
878.9599	19.21869
879.1011	20.63365
879.2424	22.37817
879.3836	22.7552
879.5248	25.74302
879.666	20.67883
879.8071	20.28814
879.9483	22.42067
880.0895	26.40516
880.2306	20.24395
880.3718	18.62016
880.5129	19.41235
880.654	21.51587
880.7951	22.96385
880.9362	24.57738
881.0773	23.19987
881.2183	24.02135
881.3594	27.54753
881.5004	23.24958
881.6414	21.55664
881.7825	21.82837
881.9235	25.85271
882.0645	26.38315
882.2054	18.92853
882.3464	24.33646
882.4874	24.31867
882.6284	28.06169
882.7693	25.11875
882.9103	22.05143
883.0512	18.10925
883.1921	21.33303
883.333	20.39122
883.4739	23.14332
883.6147	22.78453
883.7556	23.55131
883.8965	25.53416
884.0374	24.49143
884.1782	23.30311
884.319	22.02621
884.4598	17.30167
884.6006	18.90862
884.7414	17.43706
884.8822	19.82338
885.0229	20.92962
885.1637	25.8792
885.3044	23.12326
885.4452	22.49222
885.5859	22.06594
885.7266	25.47873
885.8673	18.25213
886.008	23.58022
886.1487	22.91357
886.2894	23.98851
886.43	22.11837
886.5707	23.71404
886.7113	24.02664
886.8519	23.94869
886.9926	23.29887
887.1331	21.08984
887.2737	19.15688
887.4143	23.72389
887.5549	22.21238
887.6954	18.00084
887.836	20.36781
887.9765	20.92423
888.1171	20.11382
888.2576	19.48942
888.3981	21.65176
888.5386	24.73919
888.679	23.44921
888.8195	26.79139
888.96	19.87975
889.1004	26.50769
889.2408	21.14143
889.3813	24.71054
889.5217	26.27264
889.6621	20.11143
889.8025	22.46974
889.9429	21.66624
890.0833	21.44994
890.2236	23.0793
890.364	21.48064
890.5043	21.01291
890.6446	21.03245
890.7849	20.28335
890.9252	23.81054
891.0655	22.76988
891.2058	17.39795
891.3461	22.12178
891.4863	20.8956
891.6266	21.21164
891.7668	21.88557
891.907	23.92103
892.0472	23.00384
892.1874	17.31935
892.3276	23.61871
892.4678	24.25596
892.608	22.81077
892.7481	22.56886
892.8883	18.5085
893.0284	18.96054
893.1685	19.2918
893.3087	20.47254
893.4487	22.19443
893.5889	18.69246
893.7289	21.81526
893.869	20.81722
894.009	25.0153
894.1491	19.37398
894.2891	23.24481
894.4291	21.2024
894.5692	18.12208
894.7092	20.68879
894.8491	22.47292
894.9891	16.64143
895.1291	16.15391
895.269	13.97618
895.409	21.65864
895.549	17.36227
895.6888	15.54439
895.8288	15.24785
895.9687	18.8961
896.1086	21.38628
896.2484	22.91577
896.3883	12.80046
896.5281	18.2752
896.668	18.80382
896.8079	17.5566
896.9476	17.10345
897.0875	21.65544
897.2272	18.2976
897.3671	17.60825
897.5068	17.36026
897.6466	16.2494
897.7864	14.63304
897.9261	16.61714
898.0658	18.92919
898.2056	21.01655
898.3453	20.72872
898.4849	15.86201
898.6246	18.13578
898.7643	15.42908
898.904	14.36766
899.0436	13.37842
899.1833	13.57131
899.3229	20.58994
899.4625	18.25037
899.6021	19.69084
899.7417	19.82911
899.8813	17.30053
900.0209	15.71583
900.1605	12.11687
900.3	15.3225
900.4395	18.94532
900.579	15.32965
900.7186	14.10525
900.8581	14.76083
900.9976	15.61376
901.1371	15.18389
901.2766	18.35043
901.416	21.1006
901.5555	22.53952
901.6949	18.13401
901.8344	19.34532
901.9738	18.80016
902.1132	21.37663
902.2526	16.74289
902.3919	18.06923
902.5313	18.91444
902.6707	14.01841
