SPECTRUM DATA FILE
SpectrumCount:	1
PixelCount:	3648
UserName:	ToughBook User
SampleName:	
LightSource:	
Comments:	
DeviceName:	Qwave
DeviceManufacturer:	Broadcom
DeviceSerialNo:	11311

Name:	last spectrum
Date:	2024-05-02T14:34:17.1472947+02:00
ExposureTime:	0.02
TemporalAvg:	1
IntensityUnit:	normalizedCounts
CCDLoadLevel:	0.1635419
Temperature:	31.38458
DiagramColor:	200
ProcessingSteps:	335

Wavelength [nm]	Intensity1
334.421	40.89143
334.5891	40.09671
334.7573	35.58944
334.9254	42.06258
335.0935	35.71502
335.2616	40.74156
335.4297	39.36791
335.5978	40.8459
335.7659	37.43375
335.934	33.59963
336.1021	38.29176
336.2701	34.85226
336.4382	40.40557
336.6063	36.17222
336.7744	36.08156
336.9424	37.51707
337.1105	34.34426
337.2785	39.55213
337.4466	41.46935
337.6146	40.72528
337.7827	41.16965
337.9507	37.34078
338.1187	32.54814
338.2867	37.36318
338.4548	44.38329
338.6228	45.0059
338.7908	40.10633
338.9588	40.85633
339.1268	40.81097
339.2948	37.50532
339.4628	42.43185
339.6308	44.41837
339.7988	48.89324
339.9667	38.51765
340.1347	42.63132
340.3027	43.83669
340.4707	39.76334
340.6386	41.92942
340.8066	39.71971
340.9745	40.23571
341.1425	44.55565
341.3104	45.16101
341.4784	39.97784
341.6463	44.3462
341.8142	44.40029
341.9821	43.74728
342.1501	44.88177
342.318	46.97368
342.4859	46.47326
342.6538	42.51401
342.8217	46.1956
342.9896	50.5771
343.1575	49.0139
343.3254	44.85889
343.4933	43.73594
343.6612	39.33378
343.829	44.2768
343.9969	40.83023
344.1648	34.13001
344.3326	39.02382
344.5005	39.19567
344.6683	42.8577
344.8362	43.19455
345.004	44.15403
345.1719	45.00303
345.3397	48.7837
345.5075	47.8077
345.6754	47.39216
345.8432	47.46763
346.011	42.84742
346.1788	43.69793
346.3466	42.49355
346.5144	48.51859
346.6822	47.81915
346.85	51.03803
347.0178	50.14183
347.1856	47.31886
347.3534	46.61248
347.5211	48.81853
347.6889	46.31162
347.8567	48.03991
348.0244	46.7353
348.1922	44.50337
348.3599	48.08268
348.5277	46.96022
348.6954	49.90076
348.8632	47.68592
349.0309	45.36245
349.1986	44.77786
349.3663	44.88076
349.5341	45.46059
349.7018	48.73577
349.8695	49.78894
350.0372	58.33926
350.2049	52.50434
350.3726	56.75224
350.5403	55.22253
350.7079	52.50856
350.8756	56.03171
351.0433	56.05475
351.211	56.8716
351.3786	52.0094
351.5463	52.67057
351.714	56.28241
351.8816	58.18262
352.0493	49.62517
352.2169	52.67792
352.3846	46.76556
352.5522	51.94162
352.7198	52.2961
352.8875	56.98762
353.0551	61.96696
353.2227	60.26497
353.3903	61.94123
353.5579	58.33332
353.7255	65.89966
353.8931	63.62547
354.0607	66.31854
354.2283	66.39695
354.3958	67.57672
354.5634	64.26897
354.731	71.02779
354.8986	63.94965
355.0661	65.11362
355.2337	64.41782
355.4012	61.61973
355.5688	57.62879
355.7363	61.91975
355.9039	62.52783
356.0714	60.01168
356.239	61.03334
356.4065	56.39539
356.574	51.72882
356.7415	51.7245
356.909	52.23159
357.0765	54.01031
357.244	50.74181
357.4115	54.31191
357.579	56.24619
357.7465	54.8687
357.914	49.06316
358.0815	44.88714
358.249	48.85793
358.4164	41.34588
358.5839	44.29705
358.7513	51.35185
358.9188	58.31899
359.0862	62.5715
359.2537	58.88443
359.4211	59.2048
359.5886	70.68335
359.756	72.71613
359.9234	71.50745
360.0909	75.28114
360.2583	67.50348
360.4257	64.2617
360.5931	63.93548
360.7605	58.30829
360.9279	64.98535
361.0953	66.60252
361.2627	66.1757
361.4301	68.56626
361.5974	61.87488
361.7648	59.14699
361.9322	61.52137
362.0995	63.73887
362.2669	67.35235
362.4343	71.04931
362.6016	75.04856
362.769	76.3264
362.9363	71.57852
363.1036	65.10982
363.271	65.54926
363.4383	68.91395
363.6056	71.89764
363.7729	79.20264
363.9402	80.30266
364.1075	82.29872
364.2748	76.54009
364.4421	71.43735
364.6094	69.10191
364.7767	66.33447
364.944	73.70841
365.1113	82.65126
365.2786	81.34443
365.4458	84.9762
365.6131	91.06689
365.7803	88.26653
365.9476	85.63496
366.1148	82.63721
366.2821	84.18861
366.4493	85.82594
366.6166	88.30091
366.7838	87.9581
366.951	78.59013
367.1182	81.41879
367.2855	79.67249
367.4527	82.83765
367.6199	83.32242
367.7871	83.55357
367.9543	83.16341
368.1215	83.07146
368.2886	80.47894
368.4558	83.47716
368.623	80.27689
368.7902	77.99828
368.9573	85.63024
369.1245	94.67831
369.2917	97.05608
369.4588	98.46282
369.6259	97.03456
369.7931	92.76773
369.9602	94.83607
370.1274	101.9681
370.2945	92.5
370.4616	81.0956
370.6287	79.6225
370.7958	84.92692
370.963	87.77953
371.1301	95.95976
371.2971	99.52968
371.4643	103.7142
371.6313	99.97687
371.7984	90.39786
371.9655	83.31823
372.1326	76.54748
372.2997	80.77297
372.4667	98.87141
372.6338	96.60619
372.8008	95.08871
372.9679	92.07328
373.1349	86.84372
373.3019	73.30845
373.469	68.38914
373.636	70.98186
373.803	76.41592
373.9701	88.45751
374.1371	94.14479
374.3041	94.49325
374.4711	81.80514
374.6381	74.88369
374.8051	74.23996
374.9721	82.74438
375.1391	89.81123
375.3061	106.8435
375.473	107.2716
375.64	103.5565
375.8069	97.54473
375.9739	95.692
376.1409	91.5383
376.3078	97.92715
376.4748	103.6024
376.6417	99.93412
376.8087	96.46416
376.9756	101.3058
377.1425	109.8454
377.3094	118.7446
377.4763	112.9046
377.6432	121.2924
377.8102	125.6818
377.9771	130.8854
378.144	131.7848
378.3109	129.0795
378.4777	119.1562
378.6446	108.7774
378.8115	109.0491
378.9784	108.2216
379.1452	106.1217
379.3121	104.8108
379.4789	96.79921
379.6458	95.81851
379.8127	98.18161
379.9795	106.3165
380.1463	115.8095
380.3131	120.3488
380.48	121.7295
380.6468	124.6221
380.8136	125.4499
380.9804	124.8373
381.1472	126.2098
381.314	114.7038
381.4808	106.2409
381.6476	100.0135
381.8144	96.78252
381.9812	98.07631
382.148	93.96382
382.3147	90.94409
382.4815	87.24978
382.6483	77.70676
382.815	80.24005
382.9818	77.7289
383.1485	82.05433
383.3153	85.35186
383.482	82.70177
383.6487	82.94547
383.8155	89.13703
383.9822	95.10949
384.1489	98.86383
384.3156	110.2506
384.4823	122.8145
384.649	126.332
384.8157	123.8835
384.9824	118.5337
385.1491	118.3712
385.3158	116.4137
385.4825	118.3729
385.6491	111.5506
385.8158	106.9615
385.9825	104.3982
386.1491	112.4445
386.3157	123.1062
386.4824	123.0493
386.649	126.0165
386.8157	118.6318
386.9823	118.0979
387.1489	113.0426
387.3156	114.3536
387.4821	123.8708
387.6488	121.0396
387.8154	119.183
387.982	110.5002
388.1486	109.6722
388.3152	117.49
388.4818	114.5447
388.6483	115.3244
388.8149	119.0922
388.9815	127.2914
389.148	132.4224
389.3146	143.5681
389.4811	145.6079
389.6477	144.424
389.8142	145.9939
389.9808	147.5063
390.1473	143.3222
390.3138	139.144
390.4804	145.5513
390.6469	139.6911
390.8134	150.3022
390.9799	161.6582
391.1464	168.7471
391.3129	164.8543
391.4794	163.453
391.6459	158.6972
391.8124	147.3785
391.9789	141.2606
392.1453	144.1864
392.3118	139.4199
392.4782	128.7922
392.6447	119.4913
392.8112	102.8546
392.9776	85.30958
393.144	72.5609
393.3105	70.56333
393.4769	71.83902
393.6433	85.40612
393.8098	100.7532
393.9762	118.6736
394.1426	124.3774
394.309	136.9082
394.4754	139.8672
394.6418	148.6103
394.8082	163.0407
394.9746	176.3533
395.141	177.445
395.3073	184.3957
395.4737	181.8373
395.64	182.6301
395.8064	180.1893
395.9728	163.9832
396.1391	139.7815
396.3055	127.3954
396.4718	115.3161
396.6381	96.91107
396.8045	82.25166
396.9708	86.97939
397.1371	101.3183
397.3034	124.2393
397.4697	143.308
397.636	167.7092
397.8023	181.3987
397.9686	196.0801
398.1349	208.4808
398.3012	209.8572
398.4675	208.6718
398.6337	209.6019
398.8	219.0764
398.9662	220.7668
399.1325	229.8543
399.2988	231.8744
399.465	226.281
399.6313	217.5609
399.7975	222.1442
399.9637	229.7878
400.1299	234.5729
400.2961	234.5552
400.4624	231.5905
400.6286	223.6396
400.7948	232.0678
400.961	237.7942
401.1272	250.7746
401.2934	250.6712
401.4595	250.9774
401.6257	248.0897
401.7919	244.5724
401.9581	252.6706
402.1242	258.1203
402.2904	253.7398
402.4565	255.9381
402.6227	257.6257
402.7888	257.5343
402.955	243.996
403.1211	234.2087
403.2872	223.3626
403.4533	234.1696
403.6194	246.615
403.7856	258.2359
403.9517	263.2389
404.1177	260.5957
404.2838	247.8417
404.4499	238.248
404.616	223.0817
404.7821	241.6638
404.9482	257.5685
405.1142	273.2806
405.2803	258.3955
405.4464	247.3938
405.6124	249.3933
405.7784	244.237
405.9445	246.1441
406.1105	250.6818
406.2766	246.5016
406.4426	240.9545
406.6086	238.0959
406.7746	258.0338
406.9406	263.115
407.1066	258.6812
407.2726	263.2582
407.4386	266.8901
407.6046	259.3334
407.7706	256.8639
407.9366	263.8705
408.1025	280.1943
408.2685	287.1244
408.4344	289.0023
408.6004	292.1674
408.7664	296.8466
408.9323	304.8279
409.0983	300.9068
409.2642	299.3019
409.4301	289.2044
409.596	281.7648
409.762	267.9328
409.9279	254.7403
410.0938	241.1921
410.2597	231.7775
410.4256	249.2856
410.5915	273.7086
410.7574	286.0904
410.9232	306.1478
411.0891	300.5617
411.255	307.968
411.4209	316.0291
411.5867	320.9392
411.7526	312.7642
411.9184	313.2676
412.0843	312.5738
412.2501	322.9509
412.4159	312.1903
412.5818	307.3843
412.7476	306.6054
412.9134	305.2102
413.0792	305.83
413.245	290.6342
413.4108	293.2202
413.5766	309.291
413.7424	329.1147
413.9082	332.9199
414.074	326.4116
414.2397	302.033
414.4055	289.4104
414.5713	306.2449
414.737	319.5433
414.9028	314.8529
415.0685	316.0361
415.2343	315.9436
415.4	311.8875
415.5658	309.2286
415.7315	314.1471
415.8972	325.7438
416.0629	332.8804
416.2286	339.5309
416.3943	340.7785
416.56	336.0081
416.7257	331.914
416.8914	322.253
417.0571	319.6424
417.2228	310.2944
417.3884	304.4048
417.5541	304.3823
417.7198	321.0656
417.8854	330.4308
418.0511	323.176
418.2167	318.8504
418.3824	322.3717
418.548	327.5266
418.7136	316.7777
418.8792	321.8683
419.0449	333.6778
419.2105	340.7663
419.3761	348.795
419.5417	335.0603
419.7073	320.9572
419.8729	313.8091
420.0385	316.5678
420.204	318.1912
420.3696	333.6893
420.5352	349.3189
420.7007	363.736
420.8663	369.2322
421.0319	360.6485
421.1974	375.56
421.3629	364.8075
421.5285	362.9764
421.694	358.1235
421.8595	357.9784
422.0251	372.9285
422.1906	371.9752
422.3561	345.9659
422.5216	315.3766
422.6871	293.7008
422.8526	316.7694
423.0181	354.0384
423.1835	374.7638
423.349	357.0756
423.5145	344.7895
423.68	344.0158
423.8454	349.7805
424.0109	356.7361
424.1763	361.7855
424.3418	371.3006
424.5072	371.2493
424.6726	378.4957
424.838	360.3595
425.0035	346.2558
425.1689	350.4711
425.3343	361.0474
425.4997	369.7038
425.6651	371.5353
425.8305	361.4249
425.9959	338.8222
426.1613	349.8427
426.3267	380.8296
426.492	390.8933
426.6574	388.5965
426.8228	377.7766
426.9881	348.6156
427.1534	320.0629
427.3188	321.4043
427.4841	329.7087
427.6495	358.5624
427.8148	373.3401
427.9801	373.6464
428.1454	373.0675
428.3107	366.8696
428.476	363.7004
428.6414	360.093
428.8066	342.4817
428.9719	329.8203
429.1372	336.2301
429.3025	352.1169
429.4678	350.9919
429.633	330.6678
429.7983	311.0165
429.9636	285.264
430.1288	266.7119
430.294	266.4257
430.4593	277.7729
430.6245	277.8641
430.7897	267.0962
430.955	256.1633
431.1202	280.4893
431.2854	315.9942
431.4506	362.1499
431.6158	404.6543
431.781	444.0187
431.9462	444.3318
432.1114	420.7311
432.2766	380.4988
432.4417	346.2643
432.6069	343.3281
432.772	373.213
432.9372	410.5819
433.1024	433.9921
433.2675	435.3902
433.4326	431.5737
433.5977	423.1231
433.7629	371.8734
433.928	332.3667
434.0931	322.3393
434.2582	344.3867
434.4233	383.9728
434.5884	416.4662
434.7535	424.8196
434.9186	433.792
435.0837	420.4925
435.2488	409.2782
435.4138	410.4822
435.5789	431.8524
435.744	448.9057
435.909	450.2272
436.0741	461.5518
436.2391	469.5838
436.4042	482.6082
436.5692	469.6943
436.7342	473.8236
436.8992	460.1688
437.0643	458.9025
437.2293	446.1328
437.3943	442.4862
437.5593	429.7864
437.7243	441.1323
437.8893	456.1603
438.0542	450.6189
438.2192	408.8064
438.3842	371.2661
438.5491	374.3188
438.7141	414.3854
438.8791	436.6116
439.044	432.9323
439.209	435.5034
439.3739	450.572
439.5388	467.5348
439.7037	478.3343
439.8687	482.8009
440.0336	470.8102
440.1985	452.927
440.3634	436.1068
440.5283	434.4326
440.6932	438.8994
440.8581	461.2413
441.0229	490.6922
441.1878	498.9276
441.3527	505.7205
441.5175	490.2922
441.6824	483.9061
441.8472	502.3882
442.0121	522.1671
442.1769	511.5883
442.3418	505.5764
442.5066	508.3282
442.6714	509.8542
442.8362	508.7999
443.001	506.285
443.1659	510.0577
443.3307	489.6443
443.4955	483.9337
443.6602	500.1156
443.825	513.6369
443.9898	531.8717
444.1546	521.1619
444.3193	510.0966
444.4841	522.9762
444.6488	520.1851
444.8136	530.9573
444.9783	542.0889
445.1431	536.7875
445.3078	508.4525
445.4725	484.7631
445.6372	477.6096
445.802	479.2605
445.9667	483.2836
446.1314	486.5096
446.2961	501.0825
446.4608	524.9693
446.6255	530.5148
446.7901	516.3381
446.9548	520.5925
447.1195	538.0009
447.2841	552.7852
447.4488	568.3051
447.6134	571.1334
447.7781	572.6959
447.9427	552.5532
448.1074	541.9755
448.272	540.8179
448.4366	559.6408
448.6012	577.9072
448.7658	575.1194
448.9305	559.3936
449.095	557.0417
449.2596	559.0804
449.4242	559.3992
449.5888	571.5428
449.7534	573.0657
449.9179	580.5091
450.0825	581.8833
450.2471	596.9041
450.4116	621.8093
450.5762	624.992
450.7407	623.6616
450.9052	613.1841
451.0698	617.2701
451.2343	613.3698
451.3988	606.5134
451.5633	609.7153
451.7278	613.5264
451.8923	608.4967
452.0568	603.0758
452.2213	588.527
452.3858	587.3448
452.5503	570.9742
452.7148	554.031
452.8792	548.6227
453.0437	550.9902
453.2081	555.9487
453.3726	562.6326
453.537	572.4291
453.7015	589.8565
453.8659	607.5974
454.0303	609.4001
454.1947	608.0664
454.3592	607.8991
454.5236	607.173
454.688	590.9047
454.8524	577.8051
455.0168	571.0689
455.1811	571.7589
455.3455	588.2721
455.5099	598.3613
455.6743	596.0871
455.8386	604.767
456.003	629.965
456.1673	627.5635
456.3317	608.1866
456.496	589.1909
456.6603	609.7312
456.8246	621.2319
456.989	624.4141
457.1533	616.8771
457.3176	610.6597
457.4819	636.9252
457.6462	630.4396
457.8105	623.1912
457.9748	601.1437
458.1391	589.3139
458.3033	583.6856
458.4676	583.6497
458.6319	600.6066
458.7961	620.8909
458.9604	623.1169
459.1246	621.279
459.2888	609.3101
459.4531	603.3624
459.6173	598.4548
459.7815	612.3382
459.9457	612.3656
460.11	610.6616
460.2741	605.6442
460.4384	612.6077
460.6025	618.364
460.7667	636.9171
460.9309	636.5995
461.0951	635.9056
461.2592	627.6796
461.4234	626.6277
461.5876	635.7015
461.7517	632.4675
461.9159	632.0219
462.08	636.6761
462.2441	642.847
462.4082	653.5347
462.5724	646.4771
462.7365	637.9437
462.9006	637.9181
463.0647	645.5912
463.2288	648.1248
463.3929	644.8553
463.557	639.6843
463.721	626.2277
463.8851	635.1102
464.0492	635.498
464.2132	644.5532
464.3773	635.221
464.5414	627.1073
464.7054	605.7698
464.8694	608.0288
465.0334	626.2886
465.1975	648.0845
465.3615	642.2634
465.5255	626.7983
465.6895	634.8532
465.8535	645.416
466.0175	658.5436
466.1815	662.5958
466.3455	644.3015
466.5095	623.6119
466.6734	610.575
466.8374	603.4624
467.0014	614.9083
467.1653	640.5393
467.3293	650.8163
467.4932	659.5562
467.6571	667.0731
467.8211	657.6088
467.985	652.2246
468.1489	640.8091
468.3128	649.6225
468.4767	662.0275
468.6406	668.6847
468.8045	661.3343
468.9684	668.5778
469.1323	668.7554
469.2962	669.4396
469.46	670.1885
469.6239	670.7441
469.7878	668.4083
469.9516	650.6403
470.1154	628.6473
470.2793	630.518
470.4431	625.803
470.607	633.1208
470.7708	636.4601
470.9346	642.9169
471.0984	653.5847
471.2622	662.7842
471.426	667.4523
471.5898	663.837
471.7536	683.9084
471.9174	700.0208
472.0811	695.4791
472.2449	700.6951
472.4087	699.8041
472.5724	694.8134
472.7362	674.583
472.8999	648.1154
473.0637	653.032
473.2274	662.2499
473.3911	669.3937
473.5548	670.5661
473.7185	668.7338
473.8822	672.6974
474.0459	683.8546
474.2096	691.5848
474.3733	695.2692
474.537	700.1287
474.7007	694.3699
474.8643	691.7724
475.028	690.7366
475.1917	685.1099
475.3553	681.1694
475.519	674.8951
475.6826	673.3884
475.8463	679.1591
476.0099	678.6239
476.1735	679.2128
476.3371	659.3037
476.5007	656.4562
476.6643	648.0841
476.8279	656.8596
476.9915	672.986
477.1551	682.8553
477.3187	689.7811
477.4823	690.0755
477.6458	691.1808
477.8094	705.3623
477.9729	702.7951
478.1365	704.4818
478.3	683.2762
478.4636	673.2759
478.6271	665.7825
478.7906	665.4855
478.9541	660.8557
479.1176	678.7675
479.2812	692.5344
479.4447	710.0217
479.6082	709.6729
479.7716	704.5262
479.9351	694.9077
480.0986	691.1
480.2621	692.9897
480.4255	686.1981
480.589	687.6207
480.7524	679.3262
480.9159	682.6782
481.0793	684.3772
481.2428	676.4864
481.4062	696.0045
481.5696	705.7659
481.733	704.6107
481.8964	708.2012
482.0598	706.5035
482.2232	695.2946
482.3866	686.3641
482.55	682.3422
482.7134	695.7418
482.8768	695.1967
483.0401	698.9149
483.2035	688.6427
483.3668	689.5793
483.5302	706.0229
483.6935	699.0983
483.8568	680.2139
484.0202	671.0803
484.1835	666.7083
484.3468	669.7624
484.5101	687.6159
484.6734	691.939
484.8367	689.8359
485	689.2332
485.1633	680.7958
485.3266	667.8447
485.4899	652.7982
485.6531	629.9955
485.8164	597.4858
485.9796	555.0491
486.1429	519.2654
486.3061	517.8704
486.4694	572.5406
486.6326	623.1561
486.7958	641.4188
486.959	642.9108
487.1223	621.702
487.2855	617.7979
487.4486	632.5062
487.6118	664.8674
487.775	677.1005
487.9382	688.814
488.1014	692.6253
488.2646	685.0429
488.4277	680.3917
488.5909	677.6022
488.754	650.5927
488.9171	632.7365
489.0803	635.9406
489.2434	648.551
489.4066	682.3326
489.5697	718.34
489.7328	726.5347
489.8959	718.9744
490.059	712.694
490.2221	707.9531
490.3852	708.0252
490.5482	707.7062
490.7113	704.1323
490.8744	687.2754
491.0374	670.7917
491.2005	683.4766
491.3636	697.975
491.5266	708.0889
491.6896	683.1584
491.8527	645.5571
492.0157	618.0875
492.1787	615.2671
492.3417	649.8331
492.5047	669.4458
492.6677	688.0832
492.8307	703.0561
492.9937	716.5985
493.1567	721.9451
493.3196	702.0634
493.4826	688.1445
493.6456	672.0518
493.8085	663.7557
493.9715	672.3415
494.1344	690.6005
494.2974	715.434
494.4603	722.9804
494.6232	716.3398
494.7861	700.6952
494.949	706.3188
495.1119	723.6707
495.2748	721.384
495.4377	709.114
495.6006	677.5962
495.7635	667.9431
495.9264	680.0573
496.0892	696.6702
496.2521	730.4367
496.4149	729.2841
496.5778	713.0579
496.7407	695.9814
496.9035	695.0375
497.0663	697.4427
497.2291	711.6745
497.3919	726.8905
497.5547	723.0016
497.7176	726.4771
497.8804	701.1477
498.0432	687.2314
498.2059	672.1035
498.3687	656.5881
498.5315	657.1763
498.6942	695.2435
498.857	716.1863
499.0198	714.7709
499.1825	712.1177
499.3452	720.1782
499.508	732.4424
499.6707	730.9578
499.8334	722.6616
499.9962	708.5638
500.1589	696.2333
500.3216	693.8644
500.4843	682.4817
500.6469	670.739
500.8096	685.558
500.9723	698.6391
501.135	696.671
501.2976	676.3771
501.4603	664.5532
501.623	662.2085
501.7856	666.9001
501.9482	682.8928
502.1109	688.6865
502.2735	694.0622
502.4361	712.6696
502.5987	707.4335
502.7614	702.2992
502.924	708.1247
503.0865	721.5839
503.2491	728.7159
503.4117	738.9661
503.5743	719.8786
503.7368	693.2287
503.8994	678.8487
504.062	661.6183
504.2245	667.1141
504.3871	700.4839
504.5496	725.5397
504.7121	728.6744
504.8746	712.6926
505.0372	697.7054
505.1997	713.1398
505.3622	736.805
505.5247	749.1523
505.6872	756.0836
505.8497	754.6176
506.0121	752.3976
506.1746	759.7485
506.3371	740.642
506.4995	728.2356
506.662	722.2914
506.8244	717.4322
506.9869	724.6372
507.1493	722.4667
507.3117	725.3405
507.4742	718.0537
507.6366	729.3031
507.799	721.4362
507.9614	692.067
508.1238	674.4802
508.2862	679.1852
508.4485	707.0781
508.6109	735.9458
508.7733	734.9249
508.9357	733.7008
509.098	739.7239
509.2604	744.8221
509.4227	740.3913
509.5851	730.674
509.7474	704.4954
509.9097	688.2319
510.072	701.6456
510.2343	723.3212
510.3966	729.7286
510.5589	719.0552
510.7212	713.0553
510.8835	696.3439
511.0458	700.1136
511.2081	728.3522
511.3703	733.0464
511.5326	734.7704
511.6949	734.4289
511.8571	739.455
512.0193	733.9313
512.1816	716.39
512.3438	699.4734
512.506	684.1384
512.6682	685.0907
512.8304	688.0815
512.9926	693.7327
513.1548	697.8113
513.317	709.0421
513.4792	703.6313
513.6414	696.4824
513.8035	681.6575
513.9657	666.0904
514.1279	668.1233
514.29	668.8322
514.4521	683.9918
514.6143	682.6661
514.7764	678.3857
514.9385	684.2069
515.1006	688.8403
515.2628	687.7972
515.4249	685.665
515.587	696.3619
515.7491	686.556
515.9111	695.7568
516.0732	698.9683
516.2353	692.7871
516.3973	659.5836
516.5594	617.0134
516.7214	577.5802
516.8835	555.7721
517.0455	557.9285
517.2076	563.8056
517.3696	565.3322
517.5316	617.7495
517.6937	679.4346
517.8557	701.9446
518.0176	677.5738
518.1796	620.6301
518.3416	580.019
518.5036	569.0718
518.6656	608.5801
518.8275	655.1344
518.9895	676.0793
519.1514	671.5829
519.3134	663.9511
519.4753	660.8976
519.6373	673.7117
519.7992	682.3505
519.9611	693.2996
520.123	700.7971
520.2849	699.6636
520.4468	672.9554
520.6087	663.6266
520.7706	667.1614
520.9325	672.2599
521.0944	687.9337
521.2562	709.1102
521.4181	710.4444
521.58	694.5016
521.7418	691.5049
521.9036	707.0624
522.0655	716.5551
522.2273	717.3654
522.3891	705.8709
522.551	673.7927
522.7128	657.1525
522.8746	654.3252
523.0363	676.7383
523.1981	693.1636
523.3599	682.8141
523.5217	687.992
523.6835	705.2891
523.8452	727.2846
524.007	728.2014
524.1687	732.2799
524.3304	732.7285
524.4922	724.4957
524.6539	719.4908
524.8157	722.6891
524.9774	719.599
525.1391	710.2169
525.3008	707.8162
525.4625	711.4374
525.6241	720.9902
525.7858	736.3079
525.9475	741.6193
526.1092	718.4548
526.2709	674.5787
526.4325	650.6842
526.5942	647.218
526.7558	637.3779
526.9174	624.9188
527.079	634.0576
527.2407	654.795
527.4023	675.6353
527.5639	695.3193
527.7255	701.7695
527.8871	721.8539
528.0487	732.758
528.2103	721.7078
528.3718	707.6332
528.5334	709.167
528.695	714.0963
528.8565	750.3228
529.0181	763.6111
529.1796	748.365
529.3412	747.5331
529.5027	738.1516
529.6642	710.5886
529.8257	702.7585
529.9872	693.8165
530.1487	708.4426
530.3102	727.0689
530.4717	730.4813
530.6332	741.7357
530.7947	730.5073
530.9562	738.8295
531.1176	751.1837
531.2791	755.0567
531.4405	741.2795
531.6019	731.4573
531.7634	730.3753
531.9248	729.0078
532.0862	731.3152
532.2477	715.4327
532.4091	695.5735
532.5704	677.1219
532.7319	650.2207
532.8932	649.3201
533.0546	671.3795
533.216	693.985
533.3774	705.8314
533.5388	714.4473
533.7001	708.8561
533.8615	704.5864
534.0228	698.8561
534.1841	682.2894
534.3455	689.9845
534.5068	707.4516
534.6681	711.7971
534.8293	693.3063
534.9907	686.8245
535.152	699.26
535.3132	706.3593
535.4745	716.6426
535.6358	724.8769
535.7971	733.9918
535.9583	732.6275
536.1196	722.0535
536.2808	695.1302
536.4421	686.0693
536.6033	679.632
536.7645	667.7091
536.9258	654.441
537.087	650.1301
537.2482	657.5627
537.4094	680.8887
537.5706	691.7286
537.7318	706.7653
537.8929	700.8832
538.0541	693.9438
538.2153	688.6923
538.3764	689.4598
538.5376	689.2744
538.6987	690.6914
538.8599	699.4212
539.021	680.55
539.1821	667.8893
539.3432	660.7952
539.5043	657.0877
539.6655	656.478
539.8265	648.3415
539.9876	647.0712
540.1487	654.1138
540.3098	660.3911
540.4708	639.2859
540.6319	632.8846
540.793	643.5457
540.954	645.2709
541.1151	650.8773
541.2761	658.1317
541.4371	663.6601
541.5981	662.7438
541.7592	674.1754
541.9202	665.8508
542.0812	673.4672
542.2422	669.1863
542.4031	660.3511
542.5641	667.8283
542.7251	666.9073
542.886	657.5402
543.0471	657.8368
543.208	662.7945
543.369	654.0728
543.5298	643.498
543.6908	655.1718
543.8517	680.3685
544.0126	701.1679
544.1736	696.8735
544.3345	686.3625
544.4954	672.2296
544.6563	652.5765
544.8171	653.5981
544.978	673.1445
545.1389	691.3494
545.2997	685.0435
545.4606	659.1616
545.6215	655.941
545.7823	668.0011
545.9432	671.8758
546.104	681.2153
546.2648	667.6358
546.4256	658.4775
546.5864	661.8475
546.7473	677.7162
546.908	688.7858
547.0688	688.2021
547.2296	676.8122
547.3904	669.7294
547.5511	650.6658
547.7119	648.5701
547.8727	639.5472
548.0334	652.9702
548.1942	659.1648
548.3549	665.132
548.5156	671.86
548.6763	678.1459
548.837	675.26
548.9977	672.6616
549.1584	681.6761
549.3192	677.2678
549.4798	671.8342
549.6405	672.6304
549.8011	676.315
549.9619	681.0029
550.1225	671.4526
550.2831	664.3863
550.4438	659.4472
550.6044	660.6726
550.765	663.1051
550.9257	666.6021
551.0863	664.6135
551.2469	658.1481
551.4075	659.6221
551.5681	665.1455
551.7287	667.5915
551.8893	665.8751
552.0498	671.107
552.2104	673.3334
552.371	658.412
552.5315	656.6392
552.6921	649.0154
552.8526	645.3869
553.0131	653.117
553.1736	652.3904
553.3342	664.8752
553.4947	666.2469
553.6552	664.9728
553.8157	660.7051
553.9762	658.8333
554.1367	665.5961
554.2971	660.3088
554.4576	656.542
554.618	656.3124
554.7785	662.6909
554.939	665.3373
555.0994	674.8061
555.2598	671.8283
555.4203	653.8141
555.5807	655.4388
555.7411	659.7501
555.9015	663.4568
556.0619	655.0516
556.2223	650.3951
556.3827	644.3394
556.5431	629.0394
556.7034	629.414
556.8638	619.8511
557.0242	617.1058
557.1845	623.8792
557.3448	619.2853
557.5052	627.6786
557.6655	628.0403
557.8259	631.149
557.9861	638.5396
558.1465	642.7442
558.3068	627.2043
558.467	615.1105
558.6274	607.2841
558.7877	588.5077
558.9479	583.1084
559.1082	588.9201
559.2684	600.2694
559.4287	603.6392
559.5889	593.7599
559.7491	606.5521
559.9094	608.9511
560.0696	599.4093
560.2299	599.9522
560.3901	616.674
560.5502	626.308
560.7104	633.3206
560.8707	635.6107
561.0308	642.3685
561.191	625.9349
561.3511	606.3673
561.5114	596.7871
561.6714	594.3483
561.8316	602.2181
561.9918	608.3341
562.1519	613.8423
562.312	597.1178
562.4722	607.6978
562.6323	602.0527
562.7924	608.9777
562.9525	617.993
563.1125	619.2314
563.2726	622.8892
563.4327	613.3106
563.5928	606.5486
563.7528	605.788
563.9129	615.3773
564.0729	609.2968
564.233	601.8151
564.393	613.7111
564.553	614.8226
564.7131	608.4068
564.873	610.6693
565.0331	612.3652
565.1931	607.2844
565.353	607.1127
565.5131	595.8599
565.673	581.6406
565.833	573.1631
565.9929	573.499
566.1529	577.3795
566.3129	583.1266
566.4728	586.7598
566.6328	597.9166
566.7927	593.7503
566.9526	588.5869
567.1125	598.8558
567.2724	598.3496
567.4323	614.2527
567.5922	601.2822
567.7521	594.0118
567.9119	609.3133
568.0718	600.6711
568.2317	584.6401
568.3915	578.7369
568.5514	572.1107
568.7112	573.5579
568.871	569.4454
569.0309	577.6675
569.1907	590.6329
569.3505	593.2647
569.5103	587.4244
569.6701	583.6915
569.8299	583.2451
569.9897	586.7087
570.1495	585.4227
570.3092	583.0397
570.469	574.9839
570.6287	574.209
570.7885	561.233
570.9482	563.7821
571.108	547.7646
571.2677	555.2198
571.4274	563.9472
571.5871	565.2006
571.7468	587.5316
571.9066	585.0576
572.0662	588.5448
572.2259	588.019
572.3856	585.3657
572.5452	576.7225
572.7049	574.6932
572.8646	579.5469
573.0242	582.0771
573.1838	589.7449
573.3435	586.9
573.5031	587.3082
573.6627	594.4362
573.8223	594.3521
573.9819	588.1599
574.1415	587.9169
574.3011	594.7815
574.4607	587.308
574.6203	578.9002
574.7798	577.0145
574.9394	572.7959
575.099	567.4523
575.2585	553.4311
575.418	551.0905
575.5776	560.2319
575.7371	563.8911
575.8966	562.7547
576.0562	575.6031
576.2156	563.9371
576.3751	567.5792
576.5346	575.775
576.6941	569.4321
576.8536	581.1014
577.0131	581.2536
577.1725	568.6287
577.332	563.3044
577.4914	555.1154
577.6508	556.9178
577.8103	562.4003
577.9697	562.2498
578.1291	562.4042
578.2885	551.0526
578.4479	545.0399
578.6073	540.8891
578.7667	547.7286
578.9261	556.4033
579.0854	550.6316
579.2448	549.6905
579.4042	561.5771
579.5635	556.7376
579.7229	562.2545
579.8822	562.7751
580.0416	563.6695
580.2009	552.1221
580.3602	540.3232
580.5195	548.058
580.6788	544.5121
580.8381	546.6152
580.9974	544.9114
581.1566	546.5274
581.3159	555.2875
581.4752	551.1705
581.6345	551.2009
581.7937	555.7345
581.9529	550.9052
582.1122	550.868
582.2714	553.1476
582.4306	553.6298
582.5898	552.2706
582.749	557.1833
582.9082	549.9015
583.0674	545.5558
583.2266	547.5659
583.3857	536.9688
583.5449	532.2393
583.7041	537.6813
583.8633	537.213
584.0224	539.285
584.1815	546.318
584.3407	540.5635
584.4998	531.1744
584.6589	533.3228
584.818	532.04
584.9771	530.7983
585.1362	536.5139
585.2953	537.6174
585.4544	524.4268
585.6135	520.0389
585.7725	512.3903
585.9316	517.0917
586.0906	506.7065
586.2497	519.587
586.4087	525.7668
586.5677	522.7609
586.7267	519.9896
586.8858	518.4873
587.0448	523.7446
587.2038	516.7919
587.3628	515.8957
587.5218	524.3597
587.6807	518.5226
587.8397	506.0716
587.9987	506.7881
588.1577	512.52
588.3166	506.3282
588.4755	498.3648
588.6345	495.628
588.7934	482.317
588.9523	459.7299
589.1112	445.5877
589.2701	438.632
589.429	446.5981
589.5879	455.8039
589.7468	449.9273
589.9056	463.7776
590.0645	477.1377
590.2234	483.5326
590.3822	485.5905
590.5411	489.5085
590.6999	496.1152
590.8588	491.3794
591.0176	497.5731
591.1764	501.1188
591.3352	493.8579
591.494	492.1337
591.6528	480.3811
591.8116	481.7956
591.9703	479.2784
592.1291	484.8378
592.2878	488.8506
592.4467	488.0347
592.6053	485.0646
592.7641	480.6903
592.9229	480.2605
593.0816	493.0416
593.2403	483.0881
593.399	489.321
593.5577	482.5215
593.7164	483.2649
593.8751	490.2494
594.0338	476.7375
594.1924	476.6505
594.3511	480.3362
594.5098	476.2886
594.6684	475.2391
594.8271	471.3604
594.9857	471.1
595.1443	477.8226
595.303	478.9625
595.4615	484.1427
595.6202	480.9895
595.7787	482.9636
595.9374	478.9617
596.0959	487.7045
596.2545	488.2831
596.4131	486.2231
596.5717	499.5152
596.7302	487.6288
596.8887	485.2085
597.0473	480.0601
597.2058	482.1505
597.3644	489.2314
597.5229	473.3022
597.6814	471.6783
597.8399	470.2919
597.9984	474.9667
598.1569	473.1671
598.3154	478.3916
598.4738	482.8411
598.6323	472.3279
598.7908	470.4928
598.9492	466.3871
599.1076	473.2787
599.2661	476.6008
599.4245	486.0257
599.5829	484.4305
599.7413	480.0984
599.8997	473.0316
600.0581	474.4828
600.2165	481.7749
600.3749	481.0682
600.5333	475.1866
600.6917	465.3258
600.85	467.4985
601.0084	478.5436
601.1667	469.417
601.325	469.6349
601.4833	468.851
601.6417	468.958
601.8	460.6842
601.9583	474.3052
602.1166	478.9381
602.2749	475.1703
602.4332	468.6387
602.5914	467.0955
602.7498	467.1963
602.908	474.6149
603.0662	471.8213
603.2245	470.2275
603.3828	481.6413
603.541	477.1003
603.6992	469.3243
603.8574	480.5836
604.0156	484.5768
604.1738	478.4559
604.332	480.552
604.4902	483.9544
604.6484	479.4101
604.8065	470.7712
604.9647	469.131
605.1229	477.2811
605.281	476.0932
605.4391	470.3634
605.5973	461.3529
605.7554	462.9429
605.9135	472.4487
606.0717	476.3209
606.2297	472.0397
606.3878	468.2924
606.5459	466.7414
606.704	463.6548
606.8621	461.4137
607.0201	468.8317
607.1782	465.056
607.3362	464.6577
607.4943	472.3791
607.6523	469.5727
607.8104	468.903
607.9684	456.9541
608.1264	455.1195
608.2844	459.19
608.4424	451.0269
608.6003	445.47
608.7584	462.0961
608.9163	459.4176
609.0743	444.7096
609.2322	449.5708
609.3902	452.2339
609.5482	454.71
609.7061	448.7975
609.864	451.1674
610.0219	444.7266
610.1798	438.1256
610.3377	437.0522
610.4956	438.1443
610.6535	440.591
610.8114	444.0712
610.9693	448.5309
611.1271	436.7451
611.285	448.4358
611.4429	451.4669
611.6007	456.7071
611.7585	454.0039
611.9164	442.3199
612.0742	437.6339
612.232	439.5406
612.3898	436.8327
612.5476	432.1311
612.7054	425.0116
612.8632	433.6676
613.0209	441.1373
613.1787	449.7692
613.3365	439.8005
613.4942	433.2261
613.652	414.3291
613.8097	412.5923
613.9674	422.4181
614.1252	434.4789
614.2829	437.5219
614.4406	428.2754
614.5983	431.3974
614.756	433.9895
614.9136	428.9543
615.0714	430.6607
615.229	430.9763
615.3867	430.2419
615.5443	427.8366
615.702	421.2093
615.8596	422.133
616.0172	413.5922
616.1748	395.7837
616.3325	403.6168
616.4901	407.8963
616.6476	418.4882
616.8052	420.6932
616.9628	414.4437
617.1204	418.1848
617.278	412.9465
617.4355	406.0774
617.5931	416.9944
617.7506	428.0933
617.9081	427.1245
618.0657	429.6651
618.2232	423.5956
618.3807	417.6736
618.5382	420.8125
618.6957	422.6213
618.8532	418.9622
619.0107	413.3815
619.1682	408.6444
619.3256	403.9245
619.4831	420.4017
619.6406	420.1353
619.798	411.591
619.9554	420.4695
620.1129	418.6201
620.2703	408.3744
620.4277	409.5432
620.5851	414.1295
620.7425	416.7473
620.8998	415.9378
621.0573	411.6496
621.2146	416.5401
621.372	409.9135
621.5294	401.3859
621.6867	411.7106
621.8441	402.8867
622.0013	411.6899
622.1587	402.3271
622.316	403.9973
622.4733	409.9099
622.6306	412.7395
622.7879	415.9149
622.9452	403.9759
623.1025	398.3458
623.2598	396.8615
623.4171	399.8887
623.5743	409.7386
623.7316	401.3292
623.8888	386.5813
624.046	383.7212
624.2032	392.3243
624.3605	397.3466
624.5176	391.2199
624.6749	396.1552
624.8321	390.3674
624.9893	387.1508
625.1464	402.2486
625.3036	393.892
625.4608	386.3507
625.6179	384.6075
625.7751	383.0107
625.9322	389.6599
626.0894	399.2161
626.2465	387.9816
626.4036	396.6487
626.5607	391.3438
626.7178	392.4258
626.8749	398.6502
627.032	403.851
627.189	402.2107
627.3461	401.7276
627.5032	394.8969
627.6602	390.5147
627.8173	371.138
627.9743	358.0711
628.1313	375.1183
628.2884	383.6161
628.4454	386.4814
628.6024	387.9835
628.7594	383.5453
628.9164	394.3614
629.0734	389.0306
629.2303	384.305
629.3873	376.675
629.5443	385.6002
629.7012	388.7305
629.8582	385.2998
630.0151	373.0224
630.172	370.3326
630.3289	373.6229
630.4858	369.8874
630.6428	381.5282
630.7996	391.4169
630.9565	384.7123
631.1134	380.0062
631.2703	380.72
631.4272	379.7617
631.584	376.7408
631.7408	372.5128
631.8977	362.6778
632.0546	362.5159
632.2114	374.8969
632.3682	383.5568
632.525	392.8737
632.6818	392.5247
632.8386	393.847
632.9954	388.4435
633.1522	374.6516
633.3089	379.2426
633.4657	380.4597
633.6224	379.4333
633.7792	378.655
633.9359	368.578
634.0927	370.5084
634.2494	373.5414
634.4061	372.0746
634.5628	374.0857
634.7195	376.7694
634.8762	378.1523
635.0329	382.0267
635.1895	378.025
635.3462	385.8639
635.5029	372.0377
635.6595	366.6306
635.8162	378.7296
635.9728	372.1725
636.1295	370.8485
636.2861	364.1636
636.4427	366.4454
636.5992	370.1859
636.7559	374.7231
636.9124	371.4764
637.069	367.332
637.2256	372.6042
637.3821	378.3599
637.5387	374.4669
637.6953	369.2549
637.8518	362.7665
638.0084	373.1149
638.1649	382.6555
638.3214	379.2069
638.4779	373.7173
638.6344	369.6336
638.7909	366.9756
638.9474	375.2854
639.1038	377.9172
639.2603	368.1504
639.4167	360.17
639.5732	360.9157
639.7297	360.2813
639.8861	359.8808
640.0425	354.851
640.199	367.7979
640.3553	359.0517
640.5118	363.6868
640.6682	363.5956
640.8245	354.8387
640.981	347.9207
641.1373	351.4454
641.2936	355.6827
641.45	353.7568
641.6064	359.5731
641.7627	355.037
641.9191	360.0661
642.0754	351.3582
642.2317	349.1013
642.388	353.9007
642.5443	353.9481
642.7006	356.9416
642.8569	354.3591
643.0131	353.4304
643.1694	348.5143
643.3257	348.7043
643.4819	351.0838
643.6382	347.9784
643.7944	345.7949
643.9506	344.3884
644.1069	337.9653
644.2631	346.9284
644.4193	353.9055
644.5754	353.2213
644.7316	349.9825
644.8878	346.6024
645.044	337.6109
645.2002	339.1446
645.3563	353.5918
645.5125	349.5804
645.6686	338.1828
645.8248	326.6436
645.9809	332.719
646.137	336.149
646.2931	328.4338
646.4492	331.006
646.6053	334.2255
646.7614	334.0313
646.9174	335.0821
647.0735	336.4056
647.2296	330.5045
647.3856	325.534
647.5417	324.0242
647.6977	317.419
647.8537	324.451
648.0098	331.3436
648.1658	333.6534
648.3218	324.8501
648.4777	326.2522
648.6337	328.2843
648.7897	329.4491
648.9457	331.6084
649.1016	325.8869
649.2576	314.0952
649.4135	309.3544
649.5695	310.8974
649.7254	311.2153
649.8813	317.8877
650.0372	318.3824
650.1932	326.7321
650.3491	328.2889
650.5049	326.963
650.6608	332.3392
650.8167	343.2159
650.9725	328.3628
651.1284	328.9668
651.2842	329.6613
651.4401	329.0923
651.5959	315.5152
651.7518	319.3692
651.9076	313.4776
652.0634	313.4886
652.2192	319.0157
652.3749	322.762
652.5308	319.2343
652.6865	316.7798
652.8423	320.8773
652.998	316.917
653.1538	313.4778
653.3096	312.1452
653.4653	317.3556
653.621	318.0511
653.7767	314.5328
653.9324	315.6456
654.0881	322.2966
654.2438	318.0877
654.3995	313.0701
654.5552	313.7065
654.7109	310.2921
654.8665	306.342
655.0222	307.0183
655.1778	300.7361
655.3334	306.2239
655.4891	308.5359
655.6447	297.1931
655.8003	291.4265
655.9559	297.0839
656.1115	280.0443
656.2671	255.1441
656.4227	242.015
656.5782	256.6201
656.7338	279.7851
656.8893	301.8427
657.0449	303.9055
657.2004	296.5892
657.356	297.505
657.5115	291.8871
657.667	301.3957
657.8225	305.4987
657.978	310.1867
658.1335	314.8517
658.289	307.3488
658.4445	311.1031
658.5999	304.8432
658.7554	309.743
658.9108	311.8262
659.0663	309.5559
659.2217	308.7757
659.3771	312.3435
659.5325	303.9977
659.6879	301.7512
659.8433	311.8558
659.9987	315.1901
660.1541	309.6859
660.3095	311.5116
660.4648	313.3032
660.6202	316.5901
660.7756	315.0092
660.9309	312.8928
661.0862	308.6974
661.2416	311.4279
661.3969	311.2859
661.5522	315.0861
661.7075	319.1502
661.8628	316.5714
662.0181	314.6812
662.1733	314.1786
662.3286	315.1416
662.4839	318.4201
662.6391	316.2668
662.7944	318.5479
662.9496	309.6361
663.1048	305.8158
663.26	307.2318
663.4152	306.6194
663.5704	308.8135
663.7256	310.7991
663.8808	313.5856
664.036	310.2768
664.1912	302.1237
664.3463	308.0684
664.5015	308.6343
664.6566	304.1692
664.8118	306.6167
664.9669	311.7743
665.122	306.6746
665.2771	314.2855
665.4322	310.7403
665.5873	313.618
665.7424	302.7555
665.8975	301.977
666.0526	300.7556
666.2076	303.4976
666.3627	299.2072
666.5177	292.0371
666.6727	295.9051
666.8278	301.6733
666.9828	306.1344
667.1378	307.3974
667.2928	309.1517
667.4478	310.3857
667.6028	304.916
667.7578	300.9376
667.9127	296.659
668.0677	298.413
668.2226	301.0089
668.3776	307.9508
668.5325	307.2017
668.6874	299.8665
668.8423	300.0926
668.9973	305.156
669.1522	308.0138
669.3071	301.1732
669.4619	298.4706
669.6168	298.3625
669.7717	297.3014
669.9265	302.2685
670.0814	309.0008
670.2362	298.0757
670.3911	294.4332
670.5459	289.1302
670.7007	294.026
670.8555	293.9829
671.0103	299.7466
671.1651	289.4353
671.3199	288.8231
671.4747	293.2263
671.6295	294.3392
671.7842	291.4347
671.939	286.9009
672.0937	291.0888
672.2484	296.0463
672.4031	292.7227
672.5579	284.9907
672.7126	281.2545
672.8673	291.4406
673.022	291.1418
673.1767	290.3374
673.3314	291.8118
673.486	291.4156
673.6407	288.2547
673.7953	280.3851
673.95	286.3831
674.1046	288.195
674.2592	287.8461
674.4138	294.0575
674.5684	289.6724
674.723	284.6593
674.8776	286.5341
675.0322	283.9724
675.1868	284.55
675.3414	279.9842
675.4959	282.3569
675.6505	282.2206
675.805	284.5368
675.9595	278.3777
676.1141	279.0139
676.2686	285.8173
676.4231	289.542
676.5776	282.294
676.7321	280.5197
676.8866	278.2496
677.041	280.9893
677.1955	274.8315
677.35	273.6476
677.5044	275.27
677.6589	278.0251
677.8133	278.7824
677.9677	276.3496
678.1221	272.8163
678.2766	271.7412
678.4309	279.0325
678.5853	269.9718
678.7397	277.9076
678.8941	275.4011
679.0485	269.3276
679.2028	273.1772
679.3571	275.5074
679.5115	274.0013
679.6658	263.865
679.8201	264.6545
679.9744	264.884
680.1288	271.4132
680.2831	262.9794
680.4373	265.6516
680.5916	265.1046
680.7459	262.4063
680.9001	265.0417
681.0544	271.7134
681.2087	268.3634
681.3629	269.8359
681.5171	266.2682
681.6713	262.8149
681.8256	264.524
681.9797	260.6685
682.134	261.937
682.2881	258.3724
682.4423	258.1403
682.5965	260.2803
682.7507	247.3928
682.9048	254.1623
683.059	251.0057
683.2131	260.2326
683.3672	259.9193
683.5213	253.3127
683.6754	253.7251
683.8295	253.209
683.9836	249.5946
684.1377	243.1193
684.2918	247.4368
684.4459	243.796
684.5999	250.5254
684.754	250.6516
684.908	249.8909
685.062	249.1302
685.2161	253.846
685.3701	245.2172
685.5241	240.341
685.6781	244.5703
685.8321	245.9602
685.9861	239.0737
686.14	243.2582
686.294	238.6125
686.4479	243.9976
686.6019	239.038
686.7559	214.201
686.9098	194.2836
687.0637	184.8749
687.2176	185.4619
687.3715	196.3535
687.5254	196.9102
687.6793	194.8503
687.8332	204.6468
687.9871	211.0037
688.1409	223.2804
688.2947	223.8405
688.4486	223.2315
688.6024	216.8255
688.7563	215.5939
688.9101	211.4041
689.0639	209.6521
689.2177	213.5584
689.3715	200.8788
689.5253	207.9374
689.6791	204.4183
689.8328	211.5247
689.9866	214.3428
690.1403	216.2484
690.2941	210.779
690.4478	210.787
690.6015	211.3235
690.7552	215.6344
690.9089	220.2525
691.0626	225.4464
691.2164	214.1005
691.37	217.6824
691.5237	222.7573
691.6774	218.2094
691.831	213.1458
691.9847	216.8442
692.1383	220.4092
692.2919	216.5562
692.4456	218.8959
692.5992	212.9845
692.7527	220.0153
692.9064	221.2114
693.0599	222.732
693.2136	219.3695
693.3671	219.332
693.5207	215.89
693.6742	218.3251
693.8278	212.2448
693.9813	205.3958
694.1348	207.253
694.2883	214.1905
694.4418	212.9684
694.5953	208.5837
694.7488	207.9684
694.9023	211.5046
695.0558	218.5201
695.2093	218.9808
695.3627	213.1238
695.5162	210.7088
695.6696	215.2778
695.8231	214.4584
695.9764	217.198
696.1299	213.9773
696.2833	210.7311
696.4367	215.0647
696.5901	218.0816
696.7435	222.6697
696.8968	222.6668
697.0502	225.3714
697.2036	221.8302
697.3569	219.6789
697.5102	219.8991
697.6635	217.6644
697.8168	211.1924
697.9702	215.9975
698.1235	217.0992
698.2768	216.8105
698.4301	217.0664
698.5833	212.9759
698.7366	211.3251
698.8898	207.6579
699.0431	208.1769
699.1964	205.4198
699.3495	208.4004
699.5028	213.9376
699.656	209.8273
699.8092	209.9902
699.9624	208.6047
700.1156	213.9764
700.2688	208.6898
700.4219	202.3639
700.5751	196.4749
700.7283	201.1948
700.8814	210.3197
701.0345	206.8826
701.1877	207.9311
701.3408	202.1907
701.4939	202.5458
701.647	203.8548
701.8001	200.687
701.9532	203.2362
702.1063	204.5469
702.2593	196.5496
702.4124	203.3039
702.5654	197.5437
702.7184	198.6854
702.8715	201.024
703.0245	207.8133
703.1776	211.1447
703.3305	211.7541
703.4835	215.7978
703.6365	209.3471
703.7895	203.6847
703.9424	205.4164
704.0954	209.0693
704.2484	203.0836
704.4013	213.3933
704.5543	212.0505
704.7072	209.2916
704.8601	209.6622
705.013	212.1351
705.1659	211.1116
705.3188	210.7581
705.4717	206.4604
705.6246	201.4333
705.7774	206.1936
705.9303	203.3949
706.0831	201.6338
706.236	212.6677
706.3888	210.5068
706.5416	208.0452
706.6944	210.6438
706.8472	207.5876
707	203.9301
707.1528	202.7381
707.3056	199.5538
707.4583	210.1348
707.6111	206.1377
707.7639	203.4097
707.9166	201.8771
708.0693	204.8228
708.222	207.3024
708.3748	201.063
708.5275	207.5364
708.6802	203.6036
708.8328	200.468
708.9855	203.858
709.1382	202.2193
709.2909	200.7967
709.4435	204.8268
709.5962	197.4646
709.7488	204.3617
709.9014	199.4901
710.054	191.325
710.2067	191.5758
710.3593	197.1593
710.5118	197.9857
710.6644	200.7886
710.817	207.9941
710.9695	206.3377
711.1221	200.6281
711.2747	196.1713
711.4272	196.2385
711.5797	196.0879
711.7322	199.913
711.8848	198.178
712.0373	196.0866
712.1898	196.6265
712.3422	201.7602
712.4948	197.3875
712.6472	196.4018
712.7996	204.1944
712.9521	189.0966
713.1046	196.0497
713.257	192.5887
713.4094	194.2541
713.5618	192.7541
713.7142	195.1931
713.8666	199.0749
714.019	196.9132
714.1714	194.3097
714.3237	196.2648
714.4761	198.5348
714.6285	188.1366
714.7808	192.785
714.9331	189.8184
715.0854	184.4494
715.2378	192.7814
715.3901	198.9956
715.5424	193.3116
715.6947	193.6053
715.8469	187.7249
715.9992	191.4686
716.1515	198.0248
716.3037	190.5742
716.456	178.7166
716.6082	172.6143
716.7604	169.431
716.9127	166.382
717.0649	168.9208
717.2171	166.7993
717.3693	163.0357
717.5214	161.2612
717.6736	164.6749
717.8258	164.7835
717.978	162.2547
718.1301	171.2184
718.2822	164.456
718.4344	164.086
718.5865	153.456
718.7386	151.5661
718.8907	157.9641
719.0428	157.4184
719.1949	156.7215
719.3469	161.5474
719.499	162.5296
719.6511	160.6628
719.8031	159.1959
719.9551	160.103
720.1072	160.0036
720.2592	158.0548
720.4112	155.141
720.5632	162.4143
720.7152	159.9705
720.8672	165.5973
721.0192	168.1639
721.1711	171.5248
721.3231	172.5225
721.475	175.2896
721.627	179.995
721.7789	174.0365
721.9308	179.6855
722.0828	178.1806
722.2347	173.253
722.3866	173.4626
722.5385	178.5417
722.6903	171.0695
722.8422	170.9117
722.9941	165.6622
723.1459	168.36
723.2977	158.6687
723.4496	152.7368
723.6014	150.1432
723.7532	161.8933
723.905	160.464
724.0568	160.2964
724.2086	154.8057
724.3604	156.7987
724.5121	160.1726
724.6639	158.0499
724.8157	158.2622
724.9674	162.8326
725.1191	159.9154
725.2709	158.6133
725.4226	154.7541
725.5743	154.6455
725.726	159.2323
725.8777	160.5389
726.0294	160.4149
726.181	160.7037
726.3327	156.2291
726.4844	155.5377
726.636	158.4188
726.7877	160.9945
726.9393	169.5823
727.0909	166.4626
727.2425	163.4387
727.3941	157.7482
727.5457	157.6252
727.6973	155.1858
727.8488	152.4242
728.0004	151.5847
728.1519	157.2339
728.3035	158.5728
728.455	164.5104
728.6066	161.1917
728.7581	157.2754
728.9095	154.8006
729.0611	153.5722
729.2126	154.8898
729.364	147.6015
729.5155	155.5262
729.667	159.9543
729.8184	169.0015
729.9698	160.6712
730.1213	157.041
730.2727	156.1348
730.4241	162.1579
730.5756	156.4272
730.7269	160.9615
730.8784	156.9874
731.0297	151.4617
731.1811	153.8766
731.3325	157.1202
731.4838	157.0759
731.6351	157.129
731.7865	156.5699
731.9378	153.7095
732.0891	158.2045
732.2404	163.5306
732.3917	165.8608
732.543	160.7013
732.6943	162.0741
732.8456	166.8414
732.9968	168.8564
733.1481	166.6879
733.2993	163.2456
733.4506	161.9742
733.6018	159.8441
733.753	156.181
733.9042	163.6161
734.0554	166.3126
734.2066	164.34
734.3578	172.8127
734.509	163.4829
734.6602	165.5936
734.8113	163.4055
734.9624	161.8676
735.1136	161.8935
735.2647	165.2514
735.4158	162.9562
735.5669	158.5979
735.718	162.9718
735.8691	160.2769
736.0201	157.3413
736.1713	166.1255
736.3223	162.2474
736.4733	160.6354
736.6244	161.8126
736.7755	160.2194
736.9265	163.2526
737.0775	164.2596
737.2285	160.2896
737.3795	164.2765
737.5305	160.282
737.6815	161.8792
737.8324	164.1687
737.9834	166.1565
738.1343	167.9699
738.2853	162.0908
738.4362	158.7015
738.5871	156.1994
738.738	156.0553
738.8889	158.2769
739.0399	153.3086
739.1907	155.8515
739.3416	161.3139
739.4925	154.8068
739.6433	157.7021
739.7942	158.1197
739.945	154.3025
740.0958	163.5471
740.2467	160.8873
740.3975	160.0932
740.5483	156.0842
740.6991	152.3422
740.8499	153.024
741.0007	155.7075
741.1514	158.5623
741.3022	159.6178
741.4529	159.1471
741.6036	160.4736
741.7544	161.5846
741.9051	161.3962
742.0558	152.6566
742.2065	154.6558
742.3572	158.1874
742.5079	149.6404
742.6586	153.9816
742.8093	157.588
742.9599	156.9691
743.1105	152.593
743.2612	156.1381
743.4118	160.3608
743.5624	155.5326
743.7131	153.4641
743.8636	158.8537
744.0142	151.5197
744.1648	148.9457
744.3154	150.5913
744.4659	146.7638
744.6165	151.4071
744.767	151.644
744.9176	146.8726
745.0681	150.1584
745.2186	152.0606
745.3691	152.5931
745.5197	152.9247
745.6702	149.4629
745.8206	153.1704
745.9711	149.4586
746.1215	149.4769
746.272	151.5975
746.4224	151.4117
746.5729	149.0253
746.7233	154.0016
746.8737	153.0057
747.0241	151.4335
747.1745	145.5223
747.3249	145.4117
747.4753	147.0458
747.6257	149.9238
747.776	148.914
747.9264	143.3905
748.0767	143.2076
748.2271	147.6233
748.3774	150.7651
748.5276	153.0731
748.678	154.5053
748.8282	145.7233
748.9786	149.2666
749.1288	140.7641
749.2791	138.5519
749.4294	144.5128
749.5796	141.5483
749.7299	146.7967
749.8801	148.738
750.0303	150.2003
750.1805	150.6316
750.3307	147.0358
750.4809	144.1832
750.6311	146.4851
750.7813	145.1791
750.9314	137.3829
751.0816	134.9791
751.2318	138.7042
751.3818	145.4819
751.532	136.3391
751.6821	136.9439
751.8322	137.4986
751.9823	138.2324
752.1324	136.1536
752.2825	142.0538
752.4326	138.4519
752.5826	132.2204
752.7327	138.1017
752.8827	143.354
753.0327	145.3269
753.1827	138.0528
753.3328	134.6621
753.4828	142.2006
753.6328	142.8314
753.7828	144.1429
753.9327	139.9978
754.0827	132.6841
754.2327	135.8594
754.3826	134.1983
754.5325	134.5403
754.6825	134.8081
754.8324	136.5637
754.9823	133.2479
755.1322	132.4081
755.2821	132.8229
755.432	137.8172
755.5818	134.8422
755.7318	131.4132
755.8816	126.8863
756.0314	129.4367
756.1813	131.6775
756.3311	132.0151
756.4809	136.6896
756.6307	142.4109
756.7805	135.3818
756.9303	137.8755
757.0801	132.559
757.2299	133.8783
757.3796	133.1467
757.5294	131.1652
757.6791	133.8267
757.8289	136.6105
757.9786	129.4839
758.1283	129.3543
758.278	129.951
758.4277	130.4205
758.5773	125.7028
758.7271	122.0584
758.8767	120.4365
759.0264	128.1403
759.176	124.0321
759.3256	113.8995
759.4753	97.21356
759.6249	77.66678
759.7745	75.52262
759.9241	67.66742
760.0737	69.09483
760.2233	68.1193
760.3729	63.58046
760.5224	59.64656
760.6719	56.65796
760.8215	54.03995
760.971	61.2049
761.1205	64.24266
761.2701	72.22989
761.4196	67.77731
761.5691	79.66215
761.7186	92.4943
761.868	96.57079
762.0175	92.59442
762.167	95.81602
762.3164	85.15398
762.4659	79.19237
762.6153	75.86596
762.7647	78.29488
762.9141	77.62801
763.0635	73.28699
763.2129	75.23588
763.3623	82.90295
763.5117	79.25533
763.661	71.83018
763.8104	74.69901
763.9597	74.7576
764.1091	76.933
764.2584	90.13863
764.4077	82.85555
764.557	83.26951
764.7063	84.70323
764.8556	86.41872
765.0049	90.23115
765.1541	89.75843
765.3034	91.2436
765.4526	97.51807
765.6019	92.36968
765.7511	93.32126
765.9003	97.41787
766.0496	92.84688
766.1987	95.94947
766.348	98.3829
766.4971	101.2795
766.6463	102.6962
766.7955	102.3211
766.9446	102.8238
767.0938	99.1252
767.2429	101.2702
767.392	105.3347
767.5411	107.5491
767.6902	111.3365
767.8394	107.134
767.9884	108.1108
768.1375	103.766
768.2866	105.0491
768.4356	109.6539
768.5847	109.0184
768.7337	107.8171
768.8828	106.191
769.0317	104.2346
769.1808	113.01
769.3298	114.1743
769.4788	111.5893
769.6277	109.7338
769.7767	104.7265
769.9257	105.7247
770.0746	107.1164
770.2236	111.739
770.3725	110.7755
770.5214	107.6137
770.6703	108.8824
770.8193	107.243
770.9681	102.1032
771.1171	105.6743
771.2659	113.7862
771.4148	110.1847
771.5637	105.5562
771.7125	110.7729
771.8613	116.1109
772.0101	112.5293
772.159	106.9088
772.3078	107.1152
772.4566	102.4202
772.6054	103.8746
772.7542	102.5209
772.903	102.0716
773.0517	103.9249
773.2004	104.5281
773.3492	103.9541
773.4979	110.7001
773.6467	102.659
773.7953	103.2307
773.944	106.9847
774.0928	107.1088
774.2415	105.5309
774.3901	106.6512
774.5388	100.9697
774.6874	96.86047
774.8361	96.67028
774.9847	97.81268
775.1334	100.34
775.282	96.08253
775.4305	95.03423
775.5792	104.6167
775.7277	105.7943
775.8763	99.69733
776.0249	101.864
776.1735	106.0432
776.322	99.62136
776.4705	106.656
776.6191	107.5446
776.7676	99.62485
776.9161	98.83033
777.0646	99.36034
777.2131	99.07434
777.3616	98.92934
777.5101	100.319
777.6585	99.64473
777.8069	100.5752
777.9554	98.27064
778.1038	98.10411
778.2523	96.9285
778.4007	97.77965
778.5491	97.46091
778.6974	96.79873
778.8459	99.86614
778.9942	97.62004
779.1426	99.30179
779.291	96.39904
779.4393	94.14449
779.5876	99.17442
779.736	102.1008
779.8843	97.87325
780.0326	92.75379
780.1809	94.83958
780.3292	92.41463
780.4775	99.84219
780.6257	101.8499
780.774	95.17299
780.9222	95.28443
781.0704	95.59477
781.2187	93.35941
781.3669	98.48652
781.5151	96.52424
781.6633	95.96198
781.8115	93.00194
781.9597	93.78573
782.1078	93.09706
782.256	97.65755
782.4042	95.74747
782.5523	92.57453
782.7004	95.67044
782.8486	94.8763
782.9967	95.5537
783.1448	97.46997
783.2929	92.47808
783.441	94.25844
783.5891	92.411
783.7371	92.05468
783.8851	90.02216
784.0332	96.6375
784.1812	93.76924
784.3293	93.82719
784.4773	91.32128
784.6253	88.26349
784.7733	95.44553
784.9213	93.66033
785.0692	90.95632
785.2172	94.91422
785.3652	89.66365
785.5131	93.62091
785.6611	94.09943
785.809	92.59061
785.9569	90.29893
786.1048	89.15829
786.2527	92.45713
786.4006	89.68114
786.5485	88.6931
786.6964	92.74445
786.8442	90.83209
786.9921	93.35192
787.1399	89.00021
787.2877	88.9753
787.4355	90.07539
787.5833	90.68124
787.7311	94.4919
787.8789	94.6396
788.0267	95.96825
788.1745	84.10541
788.3223	87.871
788.47	91.56967
788.6177	92.26201
788.7654	91.49343
788.9132	85.65504
789.0609	84.00399
789.2086	87.16283
789.3563	86.59736
789.504	90.38877
789.6517	88.13728
789.7993	95.76121
789.947	90.35074
790.0946	85.88372
790.2422	80.9968
790.3898	86.1448
790.5375	89.81241
790.6851	88.89758
790.8326	81.20298
790.9802	84.45708
791.1278	85.01763
791.2754	83.74792
791.423	82.48347
791.5705	89.74563
791.718	85.7976
791.8655	84.28928
792.0131	86.30103
792.1606	85.52361
792.308	82.27409
792.4556	78.39283
792.603	86.55769
792.7505	88.33199
792.8979	85.88749
793.0454	80.44588
793.1928	80.81019
793.3403	79.4035
793.4877	80.63816
793.6351	86.30128
793.7825	83.68716
793.9299	83.66886
794.0772	83.22836
794.2246	84.59566
794.3719	80.71593
794.5193	79.0097
794.6666	82.3654
794.814	80.56319
794.9613	83.62905
795.1086	83.17844
795.2559	85.94585
795.4032	82.46969
795.5505	81.78387
795.6978	84.43995
795.845	79.98333
795.9922	85.62746
796.1395	85.72577
796.2867	80.17871
796.4339	79.76653
796.5811	81.77364
796.7283	84.462
796.8755	81.27994
797.0227	82.71179
797.1699	79.946
797.317	76.07709
797.4642	83.91991
797.6113	81.37763
797.7584	82.71648
797.9056	83.4568
798.0527	76.04838
798.1998	77.60582
798.3469	78.15533
798.494	76.33187
798.641	76.78808
798.7881	76.75459
798.9351	72.89362
799.0822	76.73423
799.2292	77.67661
799.3762	83.6534
799.5232	81.37933
799.6702	76.59475
799.8172	70.96839
799.9642	74.74049
800.1111	76.62164
800.2581	79.77322
800.4051	75.9538
800.552	74.94174
800.6989	78.31609
800.8458	73.80461
800.9927	73.90588
801.1396	74.56084
801.2866	75.50491
801.4334	73.74613
801.5803	78.40359
801.7272	82.68098
801.874	73.55867
802.0209	80.05658
802.1677	72.62269
802.3145	75.02502
802.4613	84.18938
802.6081	77.55612
802.7549	72.87487
802.9017	71.864
803.0485	77.54232
803.1952	77.0372
803.342	74.46277
803.4887	74.9497
803.6354	77.57526
803.7822	82.89539
803.9289	75.92427
804.0756	70.15623
804.2223	70.21709
804.369	69.21116
804.5156	70.18182
804.6623	66.73593
804.8089	72.7626
804.9556	75.13022
805.1022	77.48871
805.2488	76.1177
805.3954	70.5554
805.542	69.22459
805.6886	78.4685
805.8352	71.84023
805.9818	72.01421
806.1283	70.09344
806.2749	68.5896
806.4214	72.53736
806.5679	73.00236
806.7145	72.02538
806.861	66.79179
807.0074	67.27631
807.154	71.59536
807.3004	74.60579
807.4469	67.19644
807.5934	66.82645
807.7398	69.06769
807.8862	69.44859
808.0327	68.66212
808.1791	67.33837
808.3255	67.25392
808.4719	68.13908
808.6183	65.89983
808.7647	62.15774
808.9111	70.27797
809.0574	69.96072
809.2037	64.80143
809.3501	66.21425
809.4965	66.63517
809.6428	63.97238
809.7891	66.74213
809.9354	66.92922
810.0817	68.27733
810.2279	66.15754
810.3742	66.27892
810.5204	68.03243
810.6667	66.59702
810.8129	71.01546
810.9592	64.83073
811.1054	67.04836
811.2516	69.59185
811.3978	63.57367
811.5439	61.81118
811.6901	65.30624
811.8363	68.48395
811.9825	65.05729
812.1286	66.37032
812.2748	64.1142
812.4209	61.36757
812.567	64.71645
812.7131	62.27155
812.8592	56.71207
813.0053	61.72385
813.1514	59.26708
813.2974	60.5979
813.4435	58.82978
813.5895	56.60361
813.7356	59.27913
813.8816	59.47673
814.0276	56.65514
814.1736	53.0773
814.3196	52.74455
814.4656	57.88021
814.6116	59.52625
814.7576	54.87275
814.9035	56.54309
815.0494	55.51547
815.1954	52.56256
815.3413	58.67114
815.4872	54.77493
815.6331	53.12378
815.779	59.19368
815.9249	55.14999
816.0707	52.38182
816.2166	51.71912
816.3625	49.11464
816.5083	53.23526
816.6542	50.93718
816.8	55.76927
816.9458	57.0863
817.0916	55.73962
817.2374	55.80573
817.3832	47.96664
817.5289	57.04474
817.6747	54.26966
817.8204	50.86767
817.9662	48.83411
818.1119	55.46635
818.2576	56.85414
818.4034	53.10738
818.5491	57.28505
818.6948	51.05249
818.8405	48.26949
818.9861	52.48569
819.1318	52.56488
819.2774	52.68631
819.423	48.42358
819.5687	55.83065
819.7143	52.18408
819.8599	53.82259
820.0055	48.44999
820.1511	47.79765
820.2967	52.28684
820.4422	51.78283
820.5878	58.11552
820.7333	57.70352
820.8788	55.79321
821.0244	57.00043
821.1699	53.92698
821.3154	54.21014
821.4609	57.56077
821.6064	50.51204
821.7519	50.39297
821.8973	49.03682
822.0428	51.63854
822.1882	53.21956
822.3337	50.07088
822.4791	49.9516
822.6245	47.35102
822.7699	50.82629
822.9153	41.34243
823.0607	42.43276
823.2061	45.2073
823.3514	45.54923
823.4968	51.53393
823.6422	52.36423
823.7875	55.32281
823.9328	53.54509
824.0781	56.6796
824.2234	54.03956
824.3687	47.67152
824.514	52.52088
824.6592	57.27182
824.8045	51.13702
824.9498	52.24154
825.095	57.80882
825.2402	54.14736
825.3854	49.27964
825.5306	52.87683
825.6758	53.59303
825.821	48.54065
825.9662	50.28526
826.1114	42.56089
826.2565	45.89255
826.4017	53.31987
826.5468	51.09404
826.692	44.34729
826.837	53.57318
826.9822	54.8901
827.1273	51.30079
827.2723	47.04915
827.4174	48.09477
827.5625	46.24039
827.7075	47.0802
827.8526	45.40163
827.9976	44.98512
828.1426	47.7149
828.2877	45.87306
828.4327	47.10766
828.5776	50.01515
828.7227	52.46436
828.8676	50.94665
829.0126	51.56242
829.1575	48.90157
829.3024	44.59913
829.4474	44.0982
829.5923	45.93829
829.7372	50.08646
829.8821	51.13335
830.027	50.32808
830.1719	51.76436
830.3168	48.86896
830.4616	44.16927
830.6064	48.15294
830.7513	48.69156
830.8961	45.49728
831.041	48.2531
831.1857	51.8462
831.3306	47.32729
831.4753	53.62198
831.6201	49.8312
831.7649	44.99522
831.9096	45.72395
832.0544	44.27588
832.1991	42.57628
832.3438	45.99599
832.4885	42.37102
832.6332	41.00724
832.778	48.74858
832.9226	42.25949
833.0673	45.55219
833.2119	43.85928
833.3566	41.46779
833.5012	43.35675
833.6459	45.50933
833.7905	43.95564
833.9351	47.46373
834.0797	48.62615
834.2243	45.69254
834.3688	49.30894
834.5134	45.62859
834.658	45.57647
834.8026	49.51702
834.9471	47.58747
835.0916	41.7613
835.2361	47.24623
835.3806	47.73011
835.5251	50.93811
835.6696	47.78816
835.8141	47.49617
835.9586	46.70981
836.103	50.06589
836.2474	49.72398
836.3918	48.27764
836.5363	46.20592
836.6807	45.28447
836.8251	45.89468
836.9695	50.19147
837.1138	48.02547
837.2582	48.64023
837.4026	47.24052
837.5469	45.58087
837.6913	45.44793
837.8356	43.4831
837.9799	48.39758
838.1242	48.4888
838.2686	45.78232
838.4128	40.46679
838.5571	40.02562
838.7014	43.577
838.8456	48.8301
838.9899	45.34903
839.1341	48.65867
839.2783	49.7246
839.4225	49.44204
839.5667	42.82871
839.7109	42.96808
839.8551	41.96507
839.9993	44.18504
840.1434	45.68163
840.2876	51.11364
840.4317	50.10777
840.5759	48.86581
840.72	46.43789
840.8641	40.86052
841.0082	45.89598
841.1523	47.00743
841.2963	42.66674
841.4404	38.77505
841.5845	43.57907
841.7285	45.55036
841.8726	43.43731
842.0165	44.10818
842.1606	45.20011
842.3046	45.03973
842.4485	46.71993
842.5925	51.34644
842.7365	45.16411
842.8805	46.70892
843.0244	49.47244
843.1684	43.94142
843.3123	45.59584
843.4562	49.45024
843.6002	48.28985
843.744	46.78286
843.8879	49.14008
844.0318	45.66949
844.1757	43.84306
844.3195	44.56359
844.4634	39.97058
844.6072	43.58285
844.751	42.89563
844.8948	39.95919
845.0386	42.29911
845.1824	39.43823
845.3262	43.19827
845.47	44.01763
845.6138	46.71996
845.7575	39.32373
845.9012	42.9458
846.045	42.42216
846.1887	43.05342
846.3324	42.00496
846.4761	38.21135
846.6198	41.68533
846.7635	45.2943
846.9071	44.61623
847.0508	43.11631
847.1944	42.39948
847.3381	47.13168
847.4817	45.43249
847.6253	44.45318
847.7689	45.3032
847.9125	44.0965
848.0561	43.24417
848.1996	39.81163
848.3432	40.82174
848.4868	43.4208
848.6303	38.79915
848.7738	41.4482
848.9174	39.57769
849.0609	47.16163
849.2043	44.62878
849.3478	45.00079
849.4913	41.64038
849.6348	35.39566
849.7782	36.34225
849.9217	38.81313
850.0651	39.47582
850.2086	40.31242
850.3519	45.31223
850.4954	37.16721
850.6387	37.29866
850.7821	42.16169
850.9255	39.12667
851.0688	41.00389
851.2122	42.73273
851.3555	39.74791
851.4988	36.52936
851.6422	41.87387
851.7855	39.23694
851.9288	38.50564
852.0721	44.31538
852.2153	41.16997
852.3586	34.20614
852.5018	35.55112
852.6451	39.83435
852.7883	37.16533
852.9315	34.81317
853.0748	35.43311
853.218	38.81607
853.3611	37.57443
853.5043	38.11555
853.6475	41.35819
853.7906	42.8688
853.9338	36.98568
854.0769	34.00875
854.22	30.48665
854.3632	29.35363
854.5063	32.49647
854.6494	33.4463
854.7924	31.30888
854.9355	29.99163
855.0786	38.65678
855.2216	37.35801
855.3647	39.45695
855.5077	35.74438
855.6507	35.40957
855.7937	38.52332
855.9367	38.75401
856.0797	39.79135
856.2227	40.33162
856.3657	35.86181
856.5086	37.38622
856.6516	32.14161
856.7945	41.21737
856.9374	39.27087
857.0803	37.6913
857.2232	38.55124
857.3661	37.97243
857.509	35.42621
857.6519	38.69696
857.7947	35.85265
857.9376	38.64745
858.0804	36.53046
858.2232	36.90552
858.366	39.23146
858.5089	36.14174
858.6516	37.33236
858.7944	42.59156
858.9372	40.21499
859.08	36.33002
859.2227	43.17617
859.3654	38.88655
859.5082	35.10449
859.6509	38.82303
859.7936	38.60863
859.9363	39.98872
860.079	32.53432
860.2217	32.34787
860.3643	38.05765
860.507	41.65835
860.6496	37.47541
860.7922	34.30183
860.9349	38.38616
861.0775	36.45839
861.2201	36.02122
861.3627	37.64517
861.5052	33.1923
861.6478	38.89151
861.7904	38.89546
861.9329	37.38448
862.0755	34.52357
862.218	41.59832
862.3605	36.21412
862.503	35.26657
862.6455	32.52015
862.788	34.82125
862.9305	34.35085
863.0729	38.01083
863.2154	35.59878
863.3578	31.52212
863.5002	33.15541
863.6426	37.61855
863.7851	35.33036
863.9275	33.5877
864.0698	33.86266
864.2122	34.10105
864.3546	34.09747
864.4969	39.48746
864.6393	35.85735
864.7816	33.18669
864.924	31.21947
865.0662	37.06003
865.2086	35.45281
865.3508	34.68944
865.4931	35.03277
865.6354	35.72982
865.7776	31.0013
865.9199	30.90365
866.0621	27.1426
866.2043	29.54925
866.3466	30.89916
866.4888	32.28781
866.6309	33.83685
866.7731	34.76211
866.9153	36.8488
867.0574	32.60797
867.1996	30.38862
867.3417	32.89979
867.4839	37.17009
867.626	33.2575
867.7681	29.01413
867.9102	32.57481
868.0522	31.40357
868.1943	35.35876
868.3364	34.27654
868.4785	34.96609
868.6205	35.99507
868.7625	32.69414
868.9045	35.40298
869.0465	36.91983
869.1885	33.81035
869.3305	31.59635
869.4725	35.95573
869.6144	32.3325
869.7564	28.7093
869.8983	31.66518
870.0403	33.76424
870.1822	32.4151
870.3241	28.93841
870.466	32.97235
870.6079	28.53969
870.7498	27.38648
870.8916	30.99332
871.0335	30.0949
871.1754	32.20205
871.3171	35.53765
871.459	29.59435
871.6008	32.55762
871.7426	34.74794
871.8844	31.31238
872.0262	26.60006
872.1679	34.69061
872.3097	33.43347
872.4514	34.93038
872.5931	28.35526
872.7349	29.27461
872.8766	29.56229
873.0183	30.38663
873.16	30.35988
873.3017	29.62874
873.4434	29.52439
873.585	33.67779
873.7266	34.94817
873.8683	36.52309
874.0099	26.87136
874.1516	28.93099
874.2932	30.45157
874.4348	28.42517
874.5763	29.35969
874.7179	28.22281
874.8594	29.85302
875.001	34.52121
875.1425	35.3091
875.2841	32.90796
875.4256	33.13033
875.5671	31.24018
875.7086	30.21371
875.85	29.97691
875.9915	28.44368
876.133	28.83303
876.2744	34.12019
876.4159	29.47792
876.5573	30.3601
876.6987	26.43692
876.8401	26.92066
876.9815	30.33945
877.1229	28.60119
877.2643	28.84601
877.4056	31.51446
877.547	28.42719
877.6884	31.23826
877.8297	28.52878
877.971	23.7849
878.1123	30.03223
878.2536	32.52513
878.3949	31.84259
878.5362	30.14589
878.6774	30.62832
878.8187	25.96874
878.9599	28.39907
879.1011	25.5093
879.2424	27.09684
879.3836	27.74049
879.5248	28.17832
879.666	27.88121
879.8071	30.50553
879.9483	28.76457
880.0895	27.94574
880.2306	29.05652
880.3718	31.26015
880.5129	30.47339
880.654	30.72477
880.7951	25.21259
880.9362	30.06493
881.0773	28.96707
881.2183	26.22006
881.3594	24.15062
881.5004	31.01493
881.6414	29.27546
881.7825	32.31637
881.9235	28.37365
882.0645	28.85928
882.2054	30.11613
882.3464	23.36694
882.4874	20.99435
882.6284	21.39369
882.7693	22.98534
882.9103	29.09828
883.0512	25.50743
883.1921	25.37624
883.333	25.24173
883.4739	28.66669
883.6147	24.66923
883.7556	23.73931
883.8965	27.56893
884.0374	29.22987
884.1782	28.27813
884.319	24.79823
884.4598	30.14656
884.6006	27.64902
884.7414	29.27329
884.8822	26.36903
885.0229	28.38883
885.1637	28.72856
885.3044	20.38366
885.4452	26.47922
885.5859	30.35732
885.7266	32.8202
885.8673	27.99588
886.008	30.54953
886.1487	29.38372
886.2894	25.51492
886.43	24.19506
886.5707	27.05045
886.7113	29.31075
886.8519	25.4131
886.9926	25.72334
887.1331	26.82462
887.2737	29.94245
887.4143	28.34632
887.5549	28.59368
887.6954	25.44387
887.836	23.85264
887.9765	24.4897
888.1171	23.05782
888.2576	23.0697
888.3981	27.44238
888.5386	25.59575
888.679	22.51075
888.8195	25.04188
888.96	21.44238
889.1004	22.69334
889.2408	20.68211
889.3813	26.50396
889.5217	27.71055
889.6621	24.71152
889.8025	26.13378
889.9429	29.76648
890.0833	25.2069
890.2236	30.11645
890.364	23.72644
890.5043	23.9638
890.6446	26.83739
890.7849	28.37734
890.9252	23.44032
891.0655	21.50451
891.2058	27.40348
891.3461	24.59725
891.4863	25.09506
891.6266	25.23397
891.7668	24.20849
891.907	25.3701
892.0472	22.52847
892.1874	20.25633
892.3276	24.46598
892.4678	23.46797
892.608	23.06236
892.7481	21.19204
892.8883	21.43482
893.0284	23.84585
893.1685	22.61051
893.3087	27.13242
893.4487	26.43733
893.5889	30.47999
893.7289	25.20086
893.869	23.4977
894.009	22.68885
894.1491	24.73959
894.2891	24.10092
894.4291	23.81067
894.5692	20.74183
894.7092	25.99528
894.8491	21.37679
894.9891	23.79848
895.1291	21.92195
895.269	23.2487
895.409	21.65818
895.549	21.33289
895.6888	24.32472
895.8288	25.11082
895.9687	21.21664
896.1086	20.81154
896.2484	19.49603
896.3883	22.27258
896.5281	21.0669
896.668	21.89708
896.8079	19.0328
896.9476	21.23274
897.0875	18.97136
897.2272	22.34517
897.3671	18.16958
897.5068	22.57489
897.6466	25.1353
897.7864	20.71384
897.9261	18.18183
898.0658	16.27216
898.2056	21.92969
898.3453	23.61564
898.4849	22.38412
898.6246	12.24148
898.7643	18.54757
898.904	20.59149
899.0436	11.06299
899.1833	16.68796
899.3229	17.91408
899.4625	19.92437
899.6021	19.98835
899.7417	22.01467
899.8813	22.20111
900.0209	26.47805
900.1605	18.55099
900.3	17.97641
900.4395	24.24996
900.579	20.92863
900.7186	18.29874
900.8581	21.22098
900.9976	20.88095
901.1371	23.58915
901.2766	25.90179
901.416	19.68167
901.5555	21.32624
901.6949	18.33311
901.8344	22.76637
901.9738	22.26721
902.1132	19.93513
902.2526	23.44172
902.3919	19.42547
902.5313	19.29237
902.6707	17.33787
