SPECTRUM DATA FILE
SpectrumCount:	1
PixelCount:	3648
UserName:	ToughBook User
SampleName:	
LightSource:	
Comments:	
DeviceName:	Qwave
DeviceManufacturer:	Broadcom
DeviceSerialNo:	11311

Name:	last spectrum
Date:	2024-05-02T14:34:40.1378634+02:00
ExposureTime:	0.02
TemporalAvg:	1
IntensityUnit:	normalizedCounts
CCDLoadLevel:	0.1616074
Temperature:	31.49347
DiagramColor:	200
ProcessingSteps:	335

Wavelength [nm]	Intensity1
334.421	37.50672
334.5891	43.28211
334.7573	38.67432
334.9254	37.22361
335.0935	37.49667
335.2616	38.85352
335.4297	41.12764
335.5978	42.96664
335.7659	34.72375
335.934	32.77547
336.1021	36.64185
336.2701	38.95476
336.4382	37.39848
336.6063	41.22268
336.7744	41.40344
336.9424	32.0247
337.1105	33.89925
337.2785	38.02056
337.4466	38.17039
337.6146	40.4133
337.7827	40.68612
337.9507	43.17154
338.1187	43.62962
338.2867	33.2415
338.4548	40.4036
338.6228	38.81244
338.7908	41.02079
338.9588	42.54584
339.1268	40.59822
339.2948	38.31808
339.4628	42.6432
339.6308	45.34521
339.7988	38.75406
339.9667	43.32915
340.1347	43.14698
340.3027	42.76188
340.4707	42.52832
340.6386	41.49612
340.8066	35.80713
340.9745	39.12109
341.1425	39.03746
341.3104	41.24441
341.4784	38.20497
341.6463	39.55253
341.8142	42.26711
341.9821	42.03244
342.1501	45.50415
342.318	48.12482
342.4859	45.34689
342.6538	46.88619
342.8217	47.12204
342.9896	45.4229
343.1575	47.24994
343.3254	47.29799
343.4933	46.18526
343.6612	48.00307
343.829	38.68437
343.9969	41.18267
344.1648	42.36565
344.3326	37.51688
344.5005	38.54099
344.6683	43.05467
344.8362	42.75355
345.004	41.65845
345.1719	45.81329
345.3397	48.41054
345.5075	45.77917
345.6754	45.54752
345.8432	43.29074
346.011	44.16013
346.1788	48.33762
346.3466	45.36467
346.5144	42.5834
346.6822	45.03916
346.85	51.02311
347.0178	48.1222
347.1856	43.29087
347.3534	41.80697
347.5211	44.82906
347.6889	42.62918
347.8567	48.5569
348.0244	48.50463
348.1922	53.07909
348.3599	51.36662
348.5277	49.56778
348.6954	50.76432
348.8632	44.28169
349.0309	44.47182
349.1986	46.36117
349.3663	49.20021
349.5341	45.21334
349.7018	47.12449
349.8695	50.84012
350.0372	53.09437
350.2049	57.26915
350.3726	54.27386
350.5403	56.16372
350.7079	55.46779
350.8756	52.40984
351.0433	53.86389
351.211	51.10782
351.3786	55.90101
351.5463	56.91379
351.714	57.31368
351.8816	56.93441
352.0493	56.43431
352.2169	52.93142
352.3846	47.14416
352.5522	47.9942
352.7198	51.24048
352.8875	56.22807
353.0551	55.45295
353.2227	59.18789
353.3903	58.26421
353.5579	57.08386
353.7255	65.02227
353.8931	64.80256
354.0607	61.43067
354.2283	59.18723
354.3958	65.9891
354.5634	64.41106
354.731	66.31992
354.8986	63.36094
355.0661	63.38316
355.2337	65.06998
355.4012	58.87019
355.5688	64.39616
355.7363	61.33241
355.9039	61.27533
356.0714	58.56763
356.239	59.28315
356.4065	58.45493
356.574	49.62183
356.7415	51.94574
356.909	51.80237
357.0765	57.55961
357.244	54.4199
357.4115	57.91541
357.579	54.53185
357.7465	53.17027
357.914	51.15859
358.0815	43.50265
358.249	46.44869
358.4164	47.45684
358.5839	47.33904
358.7513	45.1715
358.9188	51.60289
359.0862	58.21757
359.2537	63.03914
359.4211	64.64458
359.5886	68.65092
359.756	68.84142
359.9234	71.63056
360.0909	68.87302
360.2583	61.2705
360.4257	59.212
360.5931	58.07461
360.7605	61.49319
360.9279	57.12161
361.0953	63.04203
361.2627	65.18693
361.4301	63.29185
361.5974	62.35645
361.7648	62.57345
361.9322	62.96334
362.0995	63.497
362.2669	63.62394
362.4343	68.82633
362.6016	78.5573
362.769	76.80697
362.9363	68.09216
363.1036	64.10144
363.271	64.89619
363.4383	68.12748
363.6056	70.7113
363.7729	74.80109
363.9402	75.05595
364.1075	77.34637
364.2748	73.81332
364.4421	73.63993
364.6094	69.44649
364.7767	67.57111
364.944	69.86527
365.1113	71.60696
365.2786	78.11832
365.4458	84.95217
365.6131	82.30387
365.7803	85.06432
365.9476	91.53742
366.1148	88.79851
366.2821	85.98208
366.4493	84.29664
366.6166	82.62717
366.7838	82.45747
366.951	83.55757
367.1182	85.51687
367.2855	89.18697
367.4527	88.41251
367.6199	80.0326
367.7871	77.37944
367.9543	74.99855
368.1215	75.79075
368.2886	86.35248
368.4558	83.13512
368.623	76.74186
368.7902	81.3941
368.9573	81.47826
369.1245	86.52008
369.2917	88.96199
369.4588	90.395
369.6259	94.21619
369.7931	93.4066
369.9602	95.51113
370.1274	93.32347
370.2945	87.96081
370.4616	80.95209
370.6287	81.40223
370.7958	81.2486
370.963	86.78883
371.1301	91.92514
371.2971	101.7262
371.4643	102.4001
371.6313	100.1205
371.7984	89.62353
371.9655	80.53461
372.1326	75.8027
372.2997	80.73479
372.4667	87.95296
372.6338	92.35941
372.8008	90.78461
372.9679	93.40563
373.1349	88.15917
373.3019	77.56981
373.469	69.33404
373.636	66.88367
373.803	78.38113
373.9701	90.83333
374.1371	89.45447
374.3041	87.97717
374.4711	79.22691
374.6381	73.79753
374.8051	69.94994
374.9721	79.92258
375.1391	91.66732
375.3061	106.1556
375.473	107.9878
375.64	107.3908
375.8069	100.2662
375.9739	92.83024
376.1409	91.08047
376.3078	95.68657
376.4748	91.83783
376.6417	96.62619
376.8087	97.05425
376.9756	100.6275
377.1425	108.8823
377.3094	111.8766
377.4763	119.4134
377.6432	122.6276
377.8102	118.8748
377.9771	116.7296
378.144	116.8528
378.3109	123.3734
378.4777	116.1977
378.6446	112.3574
378.8115	101.4209
378.9784	104.9107
379.1452	103.2104
379.3121	105.7016
379.4789	91.13736
379.6458	92.21105
379.8127	97.85105
379.9795	104.9091
380.1463	114.6857
380.3131	117.8562
380.48	121.9121
380.6468	119.2449
380.8136	118.4556
380.9804	123.1679
381.1472	118.4777
381.314	113.2901
381.4808	105.1505
381.6476	101.5902
381.8144	97.93234
381.9812	96.27932
382.148	90.5582
382.3147	89.17275
382.4815	86.28739
382.6483	79.09054
382.815	80.94284
382.9818	82.43113
383.1485	80.10289
383.3153	76.57394
383.482	82.09444
383.6487	80.48141
383.8155	79.14178
383.9822	86.43379
384.1489	92.72195
384.3156	107.3412
384.4823	119.4459
384.649	117.6184
384.8157	120.2274
384.9824	118.8417
385.1491	117.305
385.3158	115.9603
385.4825	118.7337
385.6491	109.6143
385.8158	105.4459
385.9825	105.3683
386.1491	110.0382
386.3157	124.5489
386.4824	130.8479
386.649	127.222
386.8157	120.1151
386.9823	112.91
387.1489	107.3106
387.3156	111.4655
387.4821	124.3841
387.6488	123.6929
387.8154	115.1349
387.982	115.2614
388.1486	114.9749
388.3152	108.5398
388.4818	112.8733
388.6483	113.6609
388.8149	117.7159
388.9815	120.7778
389.148	127.5944
389.3146	135.5555
389.4811	139.1486
389.6477	143.3812
389.8142	146.4281
389.9808	142.3715
390.1473	142.4812
390.3138	136.0991
390.4804	136.1532
390.6469	136.2371
390.8134	148.3752
390.9799	153.3662
391.1464	163.841
391.3129	163.3513
391.4794	161.0399
391.6459	153.9165
391.8124	148.4577
391.9789	137.6321
392.1453	138.2165
392.3118	133.1489
392.4782	129.3981
392.6447	118.7048
392.8112	97.90196
392.9776	87.34585
393.144	74.0617
393.3105	71.16042
393.4769	67.95913
393.6433	80.7699
393.8098	96.67094
393.9762	114.3249
394.1426	130.5562
394.309	132.3687
394.4754	134.8426
394.6418	148.1083
394.8082	157.9662
394.9746	165.5826
395.141	168.4969
395.3073	173.9906
395.4737	172.705
395.64	174.6122
395.8064	173.9044
395.9728	156.8168
396.1391	142.6208
396.3055	124.1036
396.4718	107.5964
396.6381	88.16165
396.8045	77.96287
396.9708	83.19406
397.1371	97.4085
397.3034	122.2205
397.4697	145.768
397.636	163.6458
397.8023	173.999
397.9686	190.0625
398.1349	197.8449
398.3012	199.7027
398.4675	206.0066
398.6337	211.0934
398.8	212.5587
398.9662	217.2509
399.1325	218.8372
399.2988	216.1185
399.465	222.9604
399.6313	214.5165
399.7975	215.4194
399.9637	222.3111
400.1299	221.7508
400.2961	222.7417
400.4624	222.4233
400.6286	213.5651
400.7948	224.1631
400.961	230.3827
401.1272	237.1277
401.2934	233.5515
401.4595	237.8568
401.6257	248.6972
401.7919	242.7788
401.9581	239.6585
402.1242	247.5856
402.2904	247.1789
402.4565	249.8088
402.6227	248.0061
402.7888	242.5056
402.955	240.493
403.1211	222.4677
403.2872	218.474
403.4533	222.4594
403.6194	239.22
403.7856	247.7405
403.9517	253.8869
404.1177	253.761
404.2838	239.8371
404.4499	227.2029
404.616	221.4924
404.7821	231.8244
404.9482	245.2752
405.1142	257.4322
405.2803	258.0912
405.4464	246.3784
405.6124	242.3883
405.7784	237.4788
405.9445	239.9206
406.1105	245.1297
406.2766	234.9345
406.4426	230.4792
406.6086	239.9842
406.7746	251.6303
406.9406	254.3498
407.1066	257.485
407.2726	255.8832
407.4386	253.9299
407.6046	253.6019
407.7706	247.086
407.9366	256.0582
408.1025	271.3659
408.2685	275.8549
408.4344	284.0892
408.6004	280.122
408.7664	285.1919
408.9323	285.3224
409.0983	295.1016
409.2642	290.2952
409.4301	280.2691
409.596	272.0732
409.762	264.4987
409.9279	251.8326
410.0938	233.4548
410.2597	236.4332
410.4256	249.9956
410.5915	273.6844
410.7574	279.9787
410.9232	290.6783
411.0891	299.2467
411.255	295.305
411.4209	303.2372
411.5867	323.2119
411.7526	311.1279
411.9184	306.609
412.0843	296.1018
412.2501	300.8985
412.4159	311.18
412.5818	306.0472
412.7476	294.7614
412.9134	288.6104
413.0792	287.4955
413.245	283.8411
413.4108	285.0897
413.5766	301.2337
413.7424	317.5019
413.9082	322.414
414.074	315.5274
414.2397	307.6261
414.4055	299.2266
414.5713	298.9273
414.737	307.3336
414.9028	309.7834
415.0685	305.0358
415.2343	302.4323
415.4	296.8985
415.5658	297.8033
415.7315	300.6584
415.8972	313.1655
416.0629	324.0106
416.2286	328.6119
416.3943	331.31
416.56	326.8094
416.7257	324.5558
416.8914	316.5621
417.0571	312.9363
417.2228	294.9287
417.3884	299.0903
417.5541	308.5374
417.7198	311.9636
417.8854	321.173
418.0511	317.2785
418.2167	309.2886
418.3824	309.4271
418.548	309.1432
418.7136	316.2817
418.8792	318.1863
419.0449	326.2918
419.2105	329.6668
419.3761	329.2709
419.5417	322.0944
419.7073	310.8655
419.8729	305.6093
420.0385	309.6375
420.204	317.3412
420.3696	332.163
420.5352	339.9454
420.7007	349.9014
420.8663	348.8446
421.0319	356.2326
421.1974	359.3096
421.3629	360.6779
421.5285	346.2047
421.694	341.2234
421.8595	354.8022
422.0251	365.1537
422.1906	359.3064
422.3561	339.325
422.5216	302.2545
422.6871	285.4484
422.8526	317.1097
423.0181	352.2334
423.1835	365.1396
423.349	355.4298
423.5145	337.7561
423.68	331.8589
423.8454	342.5681
424.0109	348.6518
424.1763	361.3377
424.3418	366.3841
424.5072	368.1675
424.6726	366.5848
424.838	343.8585
425.0035	335.2585
425.1689	348.6694
425.3343	345.7439
425.4997	352.2997
425.6651	359.799
425.8305	345.542
425.9959	339.0738
426.1613	350.7527
426.3267	370.6801
426.492	380.1438
426.6574	377.3571
426.8228	357.0664
426.9881	327.0175
427.1534	308.0685
427.3188	309.9907
427.4841	323.7383
427.6495	350.1997
427.8148	371.1016
427.9801	370.1957
428.1454	359.821
428.3107	351.3002
428.476	360.2991
428.6414	353.7224
428.8066	333.9106
428.9719	323.7628
429.1372	327.9226
429.3025	340.2253
429.4678	338.5555
429.633	323.7191
429.7983	295.1895
429.9636	272.1964
430.1288	263.2629
430.294	270.9292
430.4593	274.3282
430.6245	260.5931
430.7897	249.1027
430.955	253.2251
431.1202	264.7052
431.2854	299.6223
431.4506	358.1016
431.6158	405.2384
431.781	432.0734
431.9462	436.327
432.1114	414.0774
432.2766	377.0484
432.4417	345.8936
432.6069	329.3632
432.772	365.355
432.9372	398.7611
433.1024	410.4694
433.2675	418.1253
433.4326	415.9072
433.5977	400.851
433.7629	369.343
433.928	323.7729
434.0931	316.2741
434.2582	344.0829
434.4233	373.159
434.5884	407.0258
434.7535	424.2945
434.9186	426.0382
435.0837	414.1423
435.2488	397.2407
435.4138	399.09
435.5789	417.8427
435.744	424.6709
435.909	430.8127
436.0741	447.4606
436.2391	454.4784
436.4042	458.155
436.5692	459.6016
436.7342	458.3704
436.8992	452.1265
437.0643	444.947
437.2293	435.7049
437.3943	421.1613
437.5593	420.9608
437.7243	433.0352
437.8893	457.2865
438.0542	447.2578
438.2192	400.3952
438.3842	363.5663
438.5491	366.0876
438.7141	410.6714
438.8791	432.3233
439.044	431.807
439.209	438.1027
439.3739	442.2129
439.5388	452.2352
439.7037	455.0269
439.8687	456.4536
440.0336	448.7286
440.1985	446.7155
440.3634	422.4012
440.5283	406.7738
440.6932	419.7426
440.8581	455.2003
441.0229	484.2386
441.1878	490.2755
441.3527	491.5909
441.5175	465.1378
441.6824	466.2035
441.8472	491.3262
442.0121	504.8569
442.1769	496.6369
442.3418	497.8685
442.5066	488.1436
442.6714	479.598
442.8362	495.6086
443.001	497.455
443.1659	489.2688
443.3307	485.2379
443.4955	472.6321
443.6602	484.0305
443.825	501.9864
443.9898	510.9738
444.1546	499.5777
444.3193	477.3718
444.4841	493.3208
444.6488	517.2368
444.8136	522.1431
444.9783	512.8845
445.1431	513.2311
445.3078	489.539
445.4725	476.3257
445.6372	462.6935
445.802	479.0428
445.9667	474.0107
446.1314	470.6873
446.2961	481.6612
446.4608	499.096
446.6255	498.2975
446.7901	508.4598
446.9548	515.7936
447.1195	526.0338
447.2841	538.9362
447.4488	560.0391
447.6134	563.7955
447.7781	553.741
447.9427	540.0937
448.1074	521.0527
448.272	515.7298
448.4366	542.2167
448.6012	553.0272
448.7658	556.7167
448.9305	546.5703
449.095	534.8758
449.2596	544.1555
449.4242	545.7603
449.5888	548.9847
449.7534	563.1729
449.9179	574.2701
450.0825	576.622
450.2471	586.6795
450.4116	600.5119
450.5762	603.0865
450.7407	608.5297
450.9052	602.2775
451.0698	603.1297
451.2343	583.5448
451.3988	585.1891
451.5633	577.423
451.7278	577.4264
451.8923	582.3314
452.0568	587.4313
452.2213	592.4603
452.3858	569.1741
452.5503	551.2684
452.7148	531.4515
452.8792	530.1501
453.0437	547.8513
453.2081	551.9446
453.3726	533.8266
453.537	545.3607
453.7015	560.5629
453.8659	588.9824
454.0303	597.2214
454.1947	590.2156
454.3592	583.355
454.5236	583.506
454.688	569.2686
454.8524	557.981
455.0168	560.4886
455.1811	570.9437
455.3455	571.9166
455.5099	561.7675
455.6743	578.3923
455.8386	606.4106
456.003	610.937
456.1673	606.0113
456.3317	581.8255
456.496	573.9448
456.6603	585.3484
456.8246	616.9501
456.989	609.8015
457.1533	601.6309
457.3176	597.9848
457.4819	606.3758
457.6462	613.0349
457.8105	597.5153
457.9748	589.9693
458.1391	575.6891
458.3033	572.2678
458.4676	573.3294
458.6319	579.6869
458.7961	599.0616
458.9604	594.754
459.1246	592.9817
459.2888	588.2739
459.4531	586.587
459.6173	577.2266
459.7815	579.9124
459.9457	579.9883
460.11	582.365
460.2741	594.9465
460.4384	587.6984
460.6025	593.3027
460.7667	614.0374
460.9309	621.3397
461.0951	611.3929
461.2592	609.8666
461.4234	615.3712
461.5876	612.1854
461.7517	611.9098
461.9159	619.8973
462.08	620.4338
462.2441	626.454
462.4082	626.4355
462.5724	631.8306
462.7365	623.8553
462.9006	616.2322
463.0647	629.5474
463.2288	629.3735
463.3929	627.9954
463.557	624.1442
463.721	603.5464
463.8851	606.0792
464.0492	607.6249
464.2132	617.2074
464.3773	622.4697
464.5414	608.6447
464.7054	591.8474
464.8694	599.8859
465.0334	612.0263
465.1975	612.7875
465.3615	624.944
465.5255	616.1471
465.6895	626.1571
465.8535	645.587
466.0175	649.4713
466.1815	640.7928
466.3455	633.8223
466.5095	609.8624
466.6734	585.3165
466.8374	586.8003
467.0014	603.7974
467.1653	624.1348
467.3293	634.4203
467.4932	640.2899
467.6571	653.1461
467.8211	636.6084
467.985	622.5049
468.1489	626.6423
468.3128	637.7437
468.4767	636.4995
468.6406	651.9835
468.8045	654.7018
468.9684	642.5032
469.1323	646.0276
469.2962	651.2174
469.46	651.9197
469.6239	656.1547
469.7878	638.142
469.9516	635.2234
470.1154	621.7188
470.2793	605.0522
470.4431	604.6926
470.607	610.8242
470.7708	618.9562
470.9346	632.3374
471.0984	639.5927
471.2622	634.8848
471.426	636.704
471.5898	650.9738
471.7536	663.4707
471.9174	685.5776
472.0811	671.6312
472.2449	683.5139
472.4087	682.1658
472.5724	684.5549
472.7362	659.9322
472.8999	632.2143
473.0637	632.7498
473.2274	644.0718
473.3911	650.8492
473.5548	645.4468
473.7185	644.4541
473.8822	652.035
474.0459	672.6686
474.2096	667.478
474.3733	672.0077
474.537	673.2019
474.7007	667.0915
474.8643	674.2554
475.028	676.5896
475.1917	659.2538
475.3553	650.0137
475.519	647.3389
475.6826	650.896
475.8463	652.0524
476.0099	660.7711
476.1735	637.166
476.3371	634.6543
476.5007	614.06
476.6643	618.3777
476.8279	637.0813
476.9915	654.8398
477.1551	655.2407
477.3187	654.035
477.4823	673.7481
477.6458	686.3487
477.8094	693.1735
477.9729	681.4388
478.1365	672.5239
478.3	652.9651
478.4636	638.1783
478.6271	639.6691
478.7906	652.5197
478.9541	642.8317
479.1176	652.556
479.2812	668.5922
479.4447	683.5533
479.6082	696.2574
479.7716	685.6493
479.9351	674.8948
480.0986	678.8657
480.2621	673.4747
480.4255	673.6023
480.589	664.9723
480.7524	659.7436
480.9159	667.605
481.0793	674.0845
481.2428	672.8848
481.4062	681.2349
481.5696	697.0905
481.733	690.0452
481.8964	684.0255
482.0598	688.0594
482.2232	680.6522
482.3866	664.608
482.55	674.3443
482.7134	680.5633
482.8768	672.237
483.0401	672.4994
483.2035	669.7368
483.3668	677.0253
483.5302	679.6506
483.6935	679.277
483.8568	673.5121
484.0202	656.978
484.1835	648.5877
484.3468	658.6014
484.5101	672.298
484.6734	671.9971
484.8367	670.0346
485	662.7025
485.1633	665.021
485.3266	654.9026
485.4899	628.423
485.6531	605.2443
485.8164	568.019
485.9796	522.0294
486.1429	492.6039
486.3061	495.9552
486.4694	545.2833
486.6326	591.6685
486.7958	627.9134
486.959	631.1899
487.1223	608.4374
487.2855	610.0891
487.4486	631.4775
487.6118	647.6224
487.775	657.9055
487.9382	670.3754
488.1014	679.5104
488.2646	679.4786
488.4277	669.671
488.5909	642.3834
488.754	639.0233
488.9171	622.8505
489.0803	610.4708
489.2434	622.0576
489.4066	669.9185
489.5697	708.4463
489.7328	718.9495
489.8959	698.3522
490.059	691.3153
490.2221	675.9933
490.3852	672.5575
490.5482	692.9371
490.7113	688.6332
490.8744	667.0097
491.0374	662.2721
491.2005	656.011
491.3636	675.9942
491.5266	686.2299
491.6896	671.8805
491.8527	629.801
492.0157	602.5494
492.1787	607.8372
492.3417	627.9794
492.5047	651.1082
492.6677	671.393
492.8307	690.4925
492.9937	695.8259
493.1567	686.9863
493.3196	676.0091
493.4826	667.4561
493.6456	658.0281
493.8085	639.5965
493.9715	643.2886
494.1344	658.7981
494.2974	675.1179
494.4603	686.8875
494.6232	693.0249
494.7861	707.0001
494.949	709.7059
495.1119	687.0704
495.2748	696.6359
495.4377	698.9968
495.6006	658.6263
495.7635	635.5523
495.9264	640.0034
496.0892	678.733
496.2521	715.0471
496.4149	709.11
496.5778	695.3411
496.7407	675.3739
496.9035	670.9698
497.0663	688.4885
497.2291	702.5787
497.3919	712.6784
497.5547	709.7623
497.7176	699.1465
497.8804	687.5015
498.0432	671.5015
498.2059	651.3865
498.3687	629.6863
498.5315	641.2088
498.6942	675.835
498.857	690.6165
499.0198	701.4902
499.1825	696.0743
499.3452	688.7903
499.508	687.4784
499.6707	699.7275
499.8334	687.6438
499.9962	677.9916
500.1589	667.9475
500.3216	657.9695
500.4843	647.623
500.6469	652.2082
500.8096	669.8926
500.9723	677.4328
501.135	672.2236
501.2976	652.0031
501.4603	645.0223
501.623	650.2816
501.7856	656.1115
501.9482	665.1896
502.1109	675.8267
502.2735	679.0549
502.4361	675.5878
502.5987	675.5514
502.7614	674.2027
502.924	685.6364
503.0865	705.6627
503.2491	715.3688
503.4117	710.6591
503.5743	692.3132
503.7368	677.92
503.8994	661.5345
504.062	644.7392
504.2245	641.2704
504.3871	671.0197
504.5496	712.0601
504.7121	720.9924
504.8746	700.8234
505.0372	672.5818
505.1997	675.6641
505.3622	711.7903
505.5247	724.6013
505.6872	723.2009
505.8497	733.9821
506.0121	750.6475
506.1746	744.6965
506.3371	720.4589
506.4995	710.5065
506.662	700.5389
506.8244	701.2676
506.9869	703.0672
507.1493	701.8049
507.3117	704.1265
507.4742	704.7293
507.6366	704.4407
507.799	688.9557
507.9614	667.507
508.1238	662.9752
508.2862	685.2381
508.4485	698.9464
508.6109	697.2757
508.7733	708.7178
508.9357	715.5426
509.098	715.4831
509.2604	720.1711
509.4227	726.8849
509.5851	721.301
509.7474	696.3546
509.9097	683.8052
510.072	680.3777
510.2343	695.3973
510.3966	704.3695
510.5589	701.7593
510.7212	686.2631
510.8835	670.5441
511.0458	676.6307
511.2081	693.7521
511.3703	703.4775
511.5326	722.6342
511.6949	721.4877
511.8571	714.0557
512.0193	710.6679
512.1816	688.5529
512.3438	666.4376
512.506	655.6981
512.6682	665.9398
512.8304	680.6319
512.9926	677.9042
513.1548	677.7938
513.317	681.0262
513.4792	688.0026
513.6414	675.447
513.8035	657.7316
513.9657	641.46
514.1279	635.3224
514.29	650.1051
514.4521	662.5031
514.6143	654.3384
514.7764	666.709
514.9385	663.4945
515.1006	662.5696
515.2628	675.8473
515.4249	668.7175
515.587	667.6694
515.7491	682.7512
515.9111	684.0211
516.0732	684.2953
516.2353	668.683
516.3973	636.9552
516.5594	602.4607
516.7214	554.3276
516.8835	544.8652
517.0455	551.1072
517.2076	545.6165
517.3696	556.4579
517.5316	611.2225
517.6937	666.0283
517.8557	667.8931
518.0176	654.7689
518.1796	609.0579
518.3416	557.5791
518.5036	549.2836
518.6656	597.4457
518.8275	646.3064
518.9895	648.9849
519.1514	638.6328
519.3134	647.7692
519.4753	650.287
519.6373	652.0649
519.7992	669.8943
519.9611	673.3802
520.123	682.6093
520.2849	664.3712
520.4468	650.6978
520.6087	636.3788
520.7706	645.2679
520.9325	657.7321
521.0944	671.0576
521.2562	691.4259
521.4181	683.3007
521.58	670.4235
521.7418	661.3263
521.9036	676.9251
522.0655	705.7144
522.2273	702.5746
522.3891	681.8201
522.551	650.986
522.7128	625.9652
522.8746	647.0762
523.0363	669.7574
523.1981	671.0482
523.3599	664.2114
523.5217	670.891
523.6835	690.1761
523.8452	712.7303
524.007	720.7645
524.1687	703.8422
524.3304	699.8821
524.4922	708.4504
524.6539	714.9902
524.8157	710.6031
524.9774	694.4656
525.1391	688.6483
525.3008	699.5134
525.4625	697.9229
525.6241	713.6297
525.7858	712.541
525.9475	710.6502
526.1092	696.8553
526.2709	670.5662
526.4325	637.5757
526.5942	622.6964
526.7558	613.3968
526.9174	604.5182
527.079	616.0969
527.2407	630.397
527.4023	643.184
527.5639	667.0662
527.7255	689.7775
527.8871	708.5878
528.0487	700.998
528.2103	687.8694
528.3718	682.9061
528.5334	691.9153
528.695	721.3914
528.8565	728.4021
529.0181	732.7683
529.1796	742.7308
529.3412	726.2391
529.5027	719.1359
529.6642	700.9663
529.8257	693.8567
529.9872	688.5198
530.1487	686.8464
530.3102	704.8139
530.4717	714.543
530.6332	713.0546
530.7947	722.1474
530.9562	724.7883
531.1176	731.6786
531.2791	730.0541
531.4405	709.6616
531.6019	706.7394
531.7634	702.3823
531.9248	707.0862
532.0862	701.7902
532.2477	688.4931
532.4091	670.972
532.5704	649.0258
532.7319	631.1957
532.8932	624.6959
533.0546	642.7977
533.216	661.2
533.3774	695.1272
533.5388	698.7847
533.7001	693.7614
533.8615	673.7617
534.0228	662.9834
534.1841	674.5844
534.3455	679.1794
534.5068	682.9004
534.6681	674.4193
534.8293	664.119
534.9907	670.8996
535.152	687.9475
535.3132	689.6246
535.4745	701.6863
535.6358	695.6865
535.7971	702.9123
535.9583	711.5513
536.1196	700.0152
536.2808	680.788
536.4421	658.4111
536.6033	649.9672
536.7645	647.8463
536.9258	637.5497
537.087	627.1766
537.2482	642.5552
537.4094	651.5155
537.5706	674.1055
537.7318	685.4963
537.8929	681.8021
538.0541	672.6542
538.2153	665.3192
538.3764	673.9221
538.5376	671.8572
538.6987	677.1085
538.8599	677.0949
539.021	663.2176
539.1821	653.9807
539.3432	642.3964
539.5043	648.2715
539.6655	639.91
539.8265	639.6818
539.9876	630.3198
540.1487	647.7258
540.3098	636.9627
540.4708	612.376
540.6319	613.9598
540.793	625.0963
540.954	633.5459
541.1151	640.1806
541.2761	642.3819
541.4371	647.6578
541.5981	652.7417
541.7592	641.8936
541.9202	652.2601
542.0812	649.1248
542.2422	640.0209
542.4031	642.3483
542.5641	646.549
542.7251	643.9381
542.886	637.4124
543.0471	631.2565
543.208	627.8317
543.369	636.6064
543.5298	643.9865
543.6908	640.1796
543.8517	651.9174
544.0126	667.9557
544.1736	671.5159
544.3345	657.4018
544.4954	639.7441
544.6563	633.4722
544.8171	638.2705
544.978	650.1838
545.1389	673.5402
545.2997	666.4602
545.4606	643.8851
545.6215	643.7402
545.7823	646.6929
545.9432	659.7388
546.104	659.2127
546.2648	643.7722
546.4256	634.2614
546.5864	645.5556
546.7473	653.3558
546.908	652.8844
547.0688	651.5713
547.2296	640.7238
547.3904	644.6282
547.5511	624.5978
547.7119	614.1064
547.8727	620.0466
548.0334	631.5606
548.1942	643.3618
548.3549	642.434
548.5156	651.0935
548.6763	659.9352
548.837	662.0356
548.9977	654.6371
549.1584	650.3732
549.3192	652.6823
549.4798	647.1996
549.6405	653.2723
549.8011	658.4712
549.9619	656.6379
550.1225	652.1967
550.2831	658.8291
550.4438	657.8259
550.6044	652.7253
550.765	647.6926
550.9257	651.4025
551.0863	651.7172
551.2469	639.9402
551.4075	632.7153
551.5681	642.8932
551.7287	657.7264
551.8893	659.6794
552.0498	661.7022
552.2104	657.6361
552.371	665.6125
552.5315	644.5591
552.6921	630.707
552.8526	621.3065
553.0131	630.1022
553.1736	641.2701
553.3342	646.4277
553.4947	648.2603
553.6552	640.656
553.8157	639.1077
553.9762	644.3661
554.1367	634.9261
554.2971	636.5446
554.4576	646.2298
554.618	645.9855
554.7785	645.1692
554.939	647.898
555.0994	642.6358
555.2598	645.7825
555.4203	635.2332
555.5807	641.6304
555.7411	631.6334
555.9015	637.4495
556.0619	631.8944
556.2223	626.0013
556.3827	619.6902
556.5431	614.8443
556.7034	616.5806
556.8638	611.476
557.0242	607.9483
557.1845	599.3489
557.3448	605.9034
557.5052	608.2667
557.6655	606.0197
557.8259	610.696
557.9861	608.2225
558.1465	626.9503
558.3068	620.2086
558.467	606.1231
558.6274	589.8826
558.7877	574.3138
558.9479	570.0842
559.1082	579.9714
559.2684	587.5576
559.4287	594.8892
559.5889	607.0446
559.7491	602.4144
559.9094	581.7114
560.0696	575.4997
560.2299	577.9874
560.3901	591.4143
560.5502	600.6477
560.7104	615.4627
560.8707	610.3593
561.0308	615.5436
561.191	617.0457
561.3511	600.6926
561.5114	594.3722
561.6714	588.2419
561.8316	588.4673
561.9918	593.7965
562.1519	601.6902
562.312	601.3887
562.4722	585.607
562.6323	588.8967
562.7924	598.021
562.9525	605.6924
563.1125	611.0305
563.2726	611.1786
563.4327	589.7522
563.5928	585.5555
563.7528	575.5103
563.9129	578.8558
564.0729	581.7495
564.233	579.3687
564.393	590.6052
564.553	593.0402
564.7131	598.6182
564.873	602.2766
565.0331	587.5895
565.1931	583.1989
565.353	582.9021
565.5131	582.4228
565.673	567.7261
565.833	570.9974
565.9929	572.2471
566.1529	566.8417
566.3129	569.9347
566.4728	571.2012
566.6328	579.956
566.7927	581.0358
566.9526	587.6109
567.1125	597.9786
567.2724	591.1697
567.4323	591.502
567.5922	589.2795
567.7521	585.2477
567.9119	588.205
568.0718	578.7313
568.2317	565.0807
568.3915	562.2449
568.5514	556.3705
568.7112	557.2801
568.871	566.9573
569.0309	569.6442
569.1907	576.1061
569.3505	573.7041
569.5103	561.6926
569.6701	579.4943
569.8299	572.1494
569.9897	559.4492
570.1495	563.2193
570.3092	562.4479
570.469	560.0673
570.6287	549.7107
570.7885	545.0068
570.9482	539.5419
571.108	544.5013
571.2677	544.3557
571.4274	547.9577
571.5871	560.4567
571.7468	558.7513
571.9066	561.876
572.0662	566.9515
572.2259	580.4734
572.3856	587.5922
572.5452	579.1367
572.7049	572.993
572.8646	577.2059
573.0242	574.066
573.1838	567.5017
573.3435	570.088
573.5031	570.4972
573.6627	569.4803
573.8223	578.6819
573.9819	570.7601
574.1415	564.8672
574.3011	565.8768
574.4607	567.4447
574.6203	566.4062
574.7798	563.7088
574.9394	555.1011
575.099	561.2795
575.2585	544.9731
575.418	550.7756
575.5776	543.0012
575.7371	546.0729
575.8966	555.1863
576.0562	552.2341
576.2156	547.9872
576.3751	545.6644
576.5346	548.1101
576.6941	563.4806
576.8536	568.9621
577.0131	562.4774
577.1725	561.0768
577.332	559.7715
577.4914	540.3038
577.6508	554.5203
577.8103	564.007
577.9697	552.4202
578.1291	541.7213
578.2885	536.1963
578.4479	524.8139
578.6073	530.4811
578.7667	534.3967
578.9261	531.016
579.0854	543.6196
579.2448	542.258
579.4042	550.1332
579.5635	547.4564
579.7229	543.8459
579.8822	536.3819
580.0416	543.2407
580.2009	548.2994
580.3602	534.8239
580.5195	538.9044
580.6788	542.0228
580.8381	539.1226
580.9974	539.2698
581.1566	544.0601
581.3159	532.7504
581.4752	532.3674
581.6345	525.0649
581.7937	523.5982
581.9529	534.015
582.1122	538.614
582.2714	539.6521
582.4306	532.9035
582.5898	538.7059
582.749	532.3964
582.9082	538.071
583.0674	533.3055
583.2266	528.3043
583.3857	533.0346
583.5449	526.2767
583.7041	530.0519
583.8633	521.6134
584.0224	524.6187
584.1815	528.8727
584.3407	526.4459
584.4998	517.1388
584.6589	517.2224
584.818	514.6079
584.9771	513.2754
585.1362	515.1569
585.2953	503.0841
585.4544	507.587
585.6135	505.0559
585.7725	499.8436
585.9316	498.551
586.0906	502.7752
586.2497	507.7214
586.4087	507.9176
586.5677	516.5828
586.7267	511.3515
586.8858	511.6078
587.0448	511.1007
587.2038	511.9966
587.3628	512.09
587.5218	499.1075
587.6807	498.3053
587.8397	503.0557
587.9987	493.4312
588.1577	494.136
588.3166	486.8811
588.4755	490.7977
588.6345	466.906
588.7934	457.1889
588.9523	454.5088
589.1112	453.5721
589.2701	435.2607
589.429	444.8573
589.5879	451.0119
589.7468	448.4892
589.9056	458.8047
590.0645	468.1651
590.2234	481.6196
590.3822	476.3203
590.5411	485.2251
590.6999	482.1707
590.8588	476.7608
591.0176	478.7285
591.1764	473.9071
591.3352	472.1474
591.494	470.6271
591.6528	466.7856
591.8116	459.5201
591.9703	476.9825
592.1291	472.9827
592.2878	471.4824
592.4467	476.0713
592.6053	465.4053
592.7641	463.3591
592.9229	469.4712
593.0816	469.2773
593.2403	473.6565
593.399	475.358
593.5577	484.5826
593.7164	471.1836
593.8751	463.5668
594.0338	465.9933
594.1924	462.9137
594.3511	459.7852
594.5098	457.7142
594.6684	464.6823
594.8271	463.7764
594.9857	448.5287
595.1443	458.8838
595.303	479.4532
595.4615	467.1244
595.6202	464.7484
595.7787	468.6028
595.9374	467.4596
596.0959	470.4218
596.2545	466.6038
596.4131	465.0076
596.5717	463.0025
596.7302	461.458
596.8887	462.6857
597.0473	464.2144
597.2058	466.2271
597.3644	467.0213
597.5229	471.3699
597.6814	460.4033
597.8399	458.4645
597.9984	461.6274
598.1569	463.5542
598.3154	469.1395
598.4738	464.0719
598.6323	451.9708
598.7908	458.8367
598.9492	466.1721
599.1076	470.6163
599.2661	472.7837
599.4245	464.0999
599.5829	471.956
599.7413	469.5969
599.8997	463.7322
600.0581	460.9
600.2165	465.6875
600.3749	467.3935
600.5333	465.3296
600.6917	468.3337
600.85	469.679
601.0084	464.7955
601.1667	465.5919
601.325	455.7899
601.4833	461.4707
601.6417	451.6083
601.8	458.3195
601.9583	457.5748
602.1166	453.3242
602.2749	458.1527
602.4332	446.931
602.5914	445.9978
602.7498	450.2973
602.908	465.8602
603.0662	469.8497
603.2245	462.8788
603.3828	463.4162
603.541	465.6827
603.6992	461.2849
603.8574	463.6447
604.0156	466.7277
604.1738	462.2701
604.332	456.8841
604.4902	454.6625
604.6484	455.3487
604.8065	459.5672
604.9647	455.5367
605.1229	458.7886
605.281	460.0046
605.4391	456.6948
605.5973	452.4839
605.7554	445.2018
605.9135	457.4243
606.0717	452.7949
606.2297	456.2802
606.3878	455.4897
606.5459	449.5883
606.704	450.1464
606.8621	455.7416
607.0201	457.7831
607.1782	464.1443
607.3362	459.7571
607.4943	461.7319
607.6523	455.5827
607.8104	463.4715
607.9684	455.313
608.1264	453.669
608.2844	449.7254
608.4424	448.9327
608.6003	445.6974
608.7584	445.5902
608.9163	435.8991
609.0743	442.6819
609.2322	439.2078
609.3902	443.3973
609.5482	447.8696
609.7061	445.1987
609.864	436.1993
610.0219	437.2232
610.1798	430.1994
610.3377	421.8101
610.4956	430.8948
610.6535	443.8333
610.8114	439.2275
610.9693	437.9686
611.1271	431.6159
611.285	435.951
611.4429	431.9959
611.6007	437.5415
611.7585	441.3131
611.9164	426.23
612.0742	420.8438
612.232	415.2133
612.3898	423.8484
612.5476	426.2085
612.7054	424.6074
612.8632	432.274
613.0209	425.0314
613.1787	426.2628
613.3365	420.0839
613.4942	426.7304
613.652	410.9008
613.8097	407.5678
613.9674	405.9283
614.1252	414.3123
614.2829	419.6355
614.4406	419.5447
614.5983	418.9545
614.756	411.2373
614.9136	418.2856
615.0714	419.4231
615.229	404.4232
615.3867	400.6814
615.5443	408.2328
615.702	409.9187
615.8596	408.7971
616.0172	397.7924
616.1748	393.4817
616.3325	392.7072
616.4901	394.31
616.6476	399.8841
616.8052	407.5812
616.9628	395.6023
617.1204	394.4107
617.278	415.6898
617.4355	412.2367
617.5931	409.3957
617.7506	402.392
617.9081	408.094
618.0657	415.4872
618.2232	413.5644
618.3807	414.177
618.5382	413.2017
618.6957	407.9584
618.8532	402.6132
619.0107	404.18
619.1682	400.7021
619.3256	399.1593
619.4831	412.1797
619.6406	408.4386
619.798	408.6207
619.9554	403.1731
620.1129	407.1999
620.2703	409.3194
620.4277	414.2437
620.5851	410.2759
620.7425	405.774
620.8998	412.0965
621.0573	409.163
621.2146	402.0432
621.372	398.0648
621.5294	395.3025
621.6867	400.9263
621.8441	389.6136
622.0013	395.9586
622.1587	398.1655
622.316	400.7605
622.4733	401.107
622.6306	398.234
622.7879	385.3306
622.9452	386.5357
623.1025	390.4434
623.2598	387.9855
623.4171	388.9264
623.5743	401.4079
623.7316	393.6987
623.8888	397.9978
624.046	396.5834
624.2032	391.8592
624.3605	392.015
624.5176	377.6226
624.6749	382.9514
624.8321	375.4723
624.9893	381.1092
625.1464	379.1949
625.3036	377.592
625.4608	377.1773
625.6179	373.6635
625.7751	377.094
625.9322	376.1624
626.0894	380.9702
626.2465	388.2649
626.4036	388.0891
626.5607	383.4296
626.7178	382.4849
626.8749	380.9311
627.032	373.4785
627.189	377.5085
627.3461	387.3528
627.5032	386.6505
627.6602	377.6485
627.8173	367.6633
627.9743	366.1813
628.1313	365.598
628.2884	365.806
628.4454	374.724
628.6024	375.6381
628.7594	375.0377
628.9164	374.9012
629.0734	372.0547
629.2303	377.0486
629.3873	365.0925
629.5443	362.356
629.7012	358.4518
629.8582	369.3109
630.0151	368.5153
630.172	360.544
630.3289	355.0019
630.4858	368.5591
630.6428	374.5405
630.7996	376.7817
630.9565	374.0422
631.1134	369.2134
631.2703	381.4784
631.4272	370.915
631.584	361.5589
631.7408	365.7547
631.8977	359.8011
632.0546	363.4616
632.2114	365.7768
632.3682	371.4758
632.525	371.0716
632.6818	371.7909
632.8386	371.0946
632.9954	370.7454
633.1522	368.5078
633.3089	370.0025
633.4657	371.1137
633.6224	368.8376
633.7792	359.3723
633.9359	363.4984
634.0927	363.8872
634.2494	362.9092
634.4061	361.9535
634.5628	367.0006
634.7195	356.7727
634.8762	360.2392
635.0329	368.3074
635.1895	364.6871
635.3462	362.1023
635.5029	368.8097
635.6595	368.8478
635.8162	372.7079
635.9728	358.0318
636.1295	360.2995
636.2861	364.1111
636.4427	353.0781
636.5992	355.3264
636.7559	355.2713
636.9124	361.2195
637.069	360.2674
637.2256	357.5139
637.3821	360.7116
637.5387	367.6122
637.6953	363.6249
637.8518	368.791
638.0084	367.7187
638.1649	364.9065
638.3214	360.0215
638.4779	355.195
638.6344	352.3161
638.7909	355.109
638.9474	364.5233
639.1038	355.8598
639.2603	354.3856
639.4167	356.2878
639.5732	357.8658
639.7297	352.4836
639.8861	343.3735
640.0425	340.697
640.199	353.4739
640.3553	350.8529
640.5118	358.3268
640.6682	357.0313
640.8245	350.317
640.981	343.6676
641.1373	339.6277
641.2936	343.1949
641.45	344.5386
641.6064	341.8431
641.7627	342.14
641.9191	340.7888
642.0754	328.9863
642.2317	337.23
642.388	344.2393
642.5443	345.0001
642.7006	344.3376
642.8569	344.3685
643.0131	330.5038
643.1694	337.2003
643.3257	343.7847
643.4819	347.262
643.6382	341.1314
643.7944	334.9042
643.9506	332.7309
644.1069	332.7555
644.2631	333.3496
644.4193	342.3253
644.5754	336.6116
644.7316	333.2475
644.8878	326.4982
645.044	320.7123
645.2002	331.3866
645.3563	331.7143
645.5125	332.9152
645.6686	327.3379
645.8248	323.0073
645.9809	320.2762
646.137	324.8047
646.2931	326.5927
646.4492	325.4827
646.6053	332.3103
646.7614	321.9476
646.9174	322.705
647.0735	325.7333
647.2296	322.8854
647.3856	320.6225
647.5417	312.4475
647.6977	322.6455
647.8537	318.27
648.0098	317.8304
648.1658	312.5162
648.3218	319.4937
648.4777	321.34
648.6337	324.763
648.7897	314.525
648.9457	309.9689
649.1016	313.7905
649.2576	310.6391
649.4135	293.1571
649.5695	290.5222
649.7254	304.9135
649.8813	308.0981
650.0372	305.0943
650.1932	315.6478
650.3491	317.5112
650.5049	317.5225
650.6608	319.0443
650.8167	321.7136
650.9725	312.3906
651.1284	314.4438
651.2842	315.0435
651.4401	307.3737
651.5959	301.198
651.7518	310.9
651.9076	310.2659
652.0634	309.5999
652.2192	304.2028
652.3749	309.5254
652.5308	307.9922
652.6865	311.2347
652.8423	302.9071
652.998	310.0882
653.1538	310.1309
653.3096	313.61
653.4653	311.2557
653.621	317.0839
653.7767	313.8821
653.9324	311.7737
654.0881	304.2794
654.2438	308.6277
654.3995	308.9859
654.5552	300.5431
654.7109	299.9053
654.8665	295.0821
655.0222	300.7349
655.1778	301.8777
655.3334	295.2845
655.4891	292.3136
655.6447	281.1451
655.8003	281.365
655.9559	271.6717
656.1115	259.076
656.2671	238.2334
656.4227	233.097
656.5782	250.1239
656.7338	266.5247
656.8893	288.9211
657.0449	285.5534
657.2004	292.1748
657.356	291.7596
657.5115	287.4013
657.667	293.9814
657.8225	299.4911
657.978	308.4739
658.1335	307.1752
658.289	307.3101
658.4445	299.7416
658.5999	299.212
658.7554	295.4991
658.9108	309.5208
659.0663	310.9733
659.2217	299.202
659.3771	291.2112
659.5325	297.1677
659.6879	292.4927
659.8433	297.409
659.9987	309.2506
660.1541	308.3474
660.3095	302.593
660.4648	298.9937
660.6202	294.7962
660.7756	293.4253
660.9309	296.6091
661.0862	302.1098
661.2416	293.3329
661.3969	301.3243
661.5522	304.4606
661.7075	301.2545
661.8628	297.7855
662.0181	305.1621
662.1733	304.7836
662.3286	295.5365
662.4839	298.1084
662.6391	304.4327
662.7944	297.6149
662.9496	295.3459
663.1048	295.064
663.26	300.8665
663.4152	293.425
663.5704	292.6811
663.7256	295.7939
663.8808	298.5791
664.036	300.5162
664.1912	296.3177
664.3463	297.7148
664.5015	297.6812
664.6566	296.9831
664.8118	298.256
664.9669	299.4877
665.122	294.63
665.2771	289.3755
665.4322	296.1889
665.5873	300.2829
665.7424	299.2702
665.8975	300.4853
666.0526	298.55
666.2076	300.659
666.3627	294.6417
666.5177	296.3577
666.6727	289.0667
666.8278	297.6606
666.9828	295.1323
667.1378	288.1146
667.2928	291.7023
667.4478	300.4011
667.6028	290.9347
667.7578	295.5381
667.9127	295.0359
668.0677	290.5212
668.2226	293.6363
668.3776	293.7827
668.5325	299.1927
668.6874	295.8092
668.8423	290.5899
668.9973	296.4019
669.1522	294.4563
669.3071	289.8707
669.4619	289.8139
669.6168	290.2873
669.7717	283.762
669.9265	282.508
670.0814	288.5782
670.2362	284.44
670.3911	287.657
670.5459	285.6735
670.7007	283.8658
670.8555	282.3616
671.0103	284.0083
671.1651	283.9871
671.3199	291.1437
671.4747	283.556
671.6295	282.1476
671.7842	283.9395
671.939	274.9632
672.0937	276.1504
672.2484	277.4912
672.4031	282.9925
672.5579	284.4653
672.7126	285.6207
672.8673	277.6358
673.022	282.7791
673.1767	274.7739
673.3314	278.0603
673.486	278.8584
673.6407	278.6165
673.7953	285.5894
673.95	284.388
674.1046	283.4623
674.2592	278.4936
674.4138	272.4718
674.5684	267.4792
674.723	264.1314
674.8776	272.2194
675.0322	276.006
675.1868	276.6072
675.3414	277.2398
675.4959	285.9257
675.6505	277.8928
675.805	270.8841
675.9595	274.4457
676.1141	280.33
676.2686	274.2542
676.4231	274.9703
676.5776	266.5766
676.7321	264.8579
676.8866	257.0868
677.041	259.1828
677.1955	260.9756
677.35	253.1189
677.5044	265.6724
677.6589	270.6258
677.8133	261.816
677.9677	269.3857
678.1221	268.3047
678.2766	265.2354
678.4309	262.4967
678.5853	264.5146
678.7397	256.5103
678.8941	263.3961
679.0485	256.7412
679.2028	256.998
679.3571	263.7539
679.5115	262.459
679.6658	258.8297
679.8201	260.972
679.9744	261.3889
680.1288	252.4423
680.2831	254.8938
680.4373	249.1359
680.5916	250.4648
680.7459	257.329
680.9001	265.2066
681.0544	259.7447
681.2087	259.3621
681.3629	251.569
681.5171	254.4517
681.6713	250.3801
681.8256	251.5031
681.9797	250.558
682.134	246.8836
682.2881	251.1339
682.4423	250.5057
682.5965	254.0055
682.7507	248.0807
682.9048	239.796
683.059	243.8985
683.2131	241.436
683.3672	247.7718
683.5213	243.4677
683.6754	244.446
683.8295	243.1476
683.9836	235.5732
684.1377	240.5828
684.2918	240.6503
684.4459	242.4174
684.5999	242.5539
684.754	239.6196
684.908	234.1628
685.062	235.8407
685.2161	236.2675
685.3701	244.1559
685.5241	240.8971
685.6781	233.2204
685.8321	233.0201
685.9861	231.6202
686.14	237.4026
686.294	231.148
686.4479	234.1291
686.6019	218.6978
686.7559	199.0619
686.9098	186.0088
687.0637	184.5347
687.2176	178.1028
687.3715	185.8682
687.5254	194.3341
687.6793	197.2038
687.8332	196.7514
687.9871	200.8401
688.1409	212.8709
688.2947	218.1864
688.4486	214.7665
688.6024	205.4718
688.7563	203.7736
688.9101	194.5944
689.0639	202.0962
689.2177	204.0132
689.3715	199.9163
689.5253	198.5149
689.6791	209.9954
689.8328	208.0988
689.9866	214.78
690.1403	209.4905
690.2941	208.272
690.4478	207.9275
690.6015	207.9994
690.7552	216.2693
690.9089	216.13
691.0626	204.9991
691.2164	209.8859
691.37	206.3929
691.5237	206.4657
691.6774	212.0536
691.831	212.0981
691.9847	217.9797
692.1383	216.665
692.2919	217.527
692.4456	212.7207
692.5992	215.0845
692.7527	210.0999
692.9064	210.851
693.0599	209.3386
693.2136	207.4283
693.3671	208.8266
693.5207	213.1088
693.6742	215.0603
693.8278	209.7813
693.9813	206.3302
694.1348	202.6412
694.2883	201.5883
694.4418	204.4982
694.5953	209.429
694.7488	203.4511
694.9023	209.5374
695.0558	208.7757
695.2093	207.0375
695.3627	209.1398
695.5162	205.0623
695.6696	201.3806
695.8231	204.277
695.9764	199.0713
696.1299	206.1198
696.2833	206.0689
696.4367	211.0606
696.5901	207.3558
696.7435	210.9771
696.8968	213.5461
697.0502	214.0451
697.2036	212.0207
697.3569	208.6041
697.5102	209.6557
697.6635	205.1941
697.8168	202.9287
697.9702	206.3709
698.1235	212.2163
698.2768	204.7702
698.4301	210.5351
698.5833	213.8124
698.7366	206.5764
698.8898	200.5833
699.0431	203.9935
699.1964	201.0675
699.3495	202.6743
699.5028	205.0696
699.656	201.4631
699.8092	203.0042
699.9624	205.7403
700.1156	205.2248
700.2688	203.0603
700.4219	200.8391
700.5751	200.715
700.7283	196.9593
700.8814	191.9073
701.0345	199.185
701.1877	203.7665
701.3408	199.3876
701.4939	204.9881
701.647	200.0082
701.8001	195.6013
701.9532	199.0577
702.1063	194.9534
702.2593	196.053
702.4124	188.2844
702.5654	192.2965
702.7184	194.3496
702.8715	193.9531
703.0245	199.9599
703.1776	202.2996
703.3305	199.2168
703.4835	202.5981
703.6365	205.0892
703.7895	197.408
703.9424	195.6449
704.0954	196.606
704.2484	197.7379
704.4013	202.4528
704.5543	199.4555
704.7072	195.7265
704.8601	198.1862
705.013	199.9858
705.1659	202.7471
705.3188	198.202
705.4717	204.5679
705.6246	205.3868
705.7774	203.8111
705.9303	204.2279
706.0831	190.7215
706.236	192.7393
706.3888	196.6269
706.5416	197.7629
706.6944	192.2733
706.8472	193.9767
707	194.9106
707.1528	197.7983
707.3056	190.6613
707.4583	195.1146
707.6111	195.8656
707.7639	193.3939
707.9166	195.3056
708.0693	195.9804
708.222	201.9526
708.3748	195.6454
708.5275	194.6729
708.6802	199.726
708.8328	192.6936
708.9855	191.7981
709.1382	190.7585
709.2909	185.686
709.4435	184.4479
709.5962	188.9977
709.7488	191.7533
709.9014	199.5746
710.054	199.6874
710.2067	197.0943
710.3593	195.3608
710.5118	195.4122
710.6644	199.4799
710.817	195.6092
710.9695	190.1664
711.1221	195.9004
711.2747	191.2473
711.4272	182.5575
711.5797	187.2823
711.7322	183.9566
711.8848	188.4315
712.0373	193.7548
712.1898	197.582
712.3422	192.6743
712.4948	195.1758
712.6472	191.6474
712.7996	184.9066
712.9521	188.635
713.1046	188.8447
713.257	186.7425
713.4094	190.1694
713.5618	185.575
713.7142	182.5168
713.8666	184.9848
714.019	186.8819
714.1714	185.719
714.3237	185.8843
714.4761	183.1258
714.6285	177.3109
714.7808	181.8256
714.9331	185.728
715.0854	187.643
715.2378	186.1659
715.3901	185.0796
715.5424	190.3184
715.6947	189.4258
715.8469	184.7547
715.9992	187.9301
716.1515	181.4575
716.3037	181.6598
716.456	174.574
716.6082	166.2162
716.7604	167.9262
716.9127	170.6776
717.0649	159.2911
717.2171	157.9486
717.3693	163.7235
717.5214	156.9875
717.6736	157.0811
717.8258	156.9267
717.978	158.7332
718.1301	154.8511
718.2822	151.9617
718.4344	153.3266
718.5865	149.5341
718.7386	148.5685
718.8907	153.5791
719.0428	151.0872
719.1949	153.001
719.3469	157.9252
719.499	156.3905
719.6511	151.8702
719.8031	156.4938
719.9551	149.396
720.1072	152.5729
720.2592	153.2321
720.4112	147.6374
720.5632	152.6386
720.7152	151.5937
720.8672	154.292
721.0192	164.3121
721.1711	161.067
721.3231	162.5587
721.475	170.002
721.627	166.0957
721.7789	162.0679
721.9308	166.865
722.0828	164.3289
722.2347	163.9053
722.3866	157.0224
722.5385	157.5017
722.6903	162.2738
722.8422	163.1484
722.9941	163.4577
723.1459	160.3835
723.2977	158.2197
723.4496	152.4875
723.6014	148.2392
723.7532	152.7654
723.905	153.2281
724.0568	152.8336
724.2086	154.9908
724.3604	159.1372
724.5121	156.6622
724.6639	153.1143
724.8157	156.7623
724.9674	157.0564
725.1191	146.5332
725.2709	148.8064
725.4226	148.8158
725.5743	144.0454
725.726	148.1676
725.8777	149.2823
726.0294	150.7083
726.181	148.2218
726.3327	152.1618
726.4844	149.897
726.636	151.2701
726.7877	153.2381
726.9393	154.2184
727.0909	154.067
727.2425	151.3173
727.3941	153.3457
727.5457	147.5882
727.6973	143.7837
727.8488	137.5125
728.0004	144.5766
728.1519	153.7708
728.3035	150.0166
728.455	161.4234
728.6066	159.8905
728.7581	150.343
728.9095	143.955
729.0611	142.6113
729.2126	140.7859
729.364	140.0842
729.5155	145.1848
729.667	151.5794
729.8184	155.4896
729.9698	150.4489
730.1213	152.9005
730.2727	146.798
730.4241	144.44
730.5756	149.8274
730.7269	150.1647
730.8784	158.4195
731.0297	152.031
731.1811	151.4036
731.3325	151.026
731.4838	152.7206
731.6351	153.7053
731.7865	149.0044
731.9378	145.8404
732.0891	155.6195
732.2404	162.6293
732.3917	162.6101
732.543	162.487
732.6943	155.1776
732.8456	159.675
732.9968	160.3725
733.1481	157.2856
733.2993	158.0991
733.4506	155.8585
733.6018	155.5097
733.753	158.4885
733.9042	157.2616
734.0554	160.9493
734.2066	161.2825
734.3578	156.9474
734.509	151.7507
734.6602	151.5326
734.8113	158.0789
734.9624	163.1884
735.1136	160.611
735.2647	151.0417
735.4158	153.0633
735.5669	154.4383
735.718	155.9454
735.8691	147.6292
736.0201	153.5849
736.1713	156.398
736.3223	152.583
736.4733	151.2835
736.6244	157.1021
736.7755	161.2278
736.9265	152.4254
737.0775	155.3035
737.2285	149.0004
737.3795	153.9651
737.5305	155.2341
737.6815	153.9729
737.8324	168.1294
737.9834	158.1397
738.1343	157.3287
738.2853	151.7512
738.4362	152.6862
738.5871	154.0038
738.738	158.4086
738.8889	157.2384
739.0399	152.9609
739.1907	151.829
739.3416	156.7295
739.4925	153.6654
739.6433	147.6085
739.7942	153.3372
739.945	150.6438
740.0958	154.5025
740.2467	154.1025
740.3975	149.6938
740.5483	149.8541
740.6991	153.1915
740.8499	155.6837
741.0007	152.5701
741.1514	152.1244
741.3022	149.4548
741.4529	153.0739
741.6036	156.1698
741.7544	151.4266
741.9051	152.7326
742.0558	149.0728
742.2065	147.8463
742.3572	153.3102
742.5079	152.4865
742.6586	150.0026
742.8093	153.119
742.9599	149.9569
743.1105	143.1265
743.2612	149.8139
743.4118	153.0493
743.5624	147.8083
743.7131	146.2473
743.8636	148.7217
744.0142	149.2794
744.1648	146.7488
744.3154	150.4502
744.4659	150.7066
744.6165	149.2776
744.767	145.1137
744.9176	149.7635
745.0681	145.2932
745.2186	146.919
745.3691	150.7915
745.5197	149.5379
745.6702	151.3889
745.8206	149.4593
745.9711	148.4037
746.1215	151.8955
746.272	149.681
746.4224	140.2816
746.5729	138.1731
746.7233	146.7901
746.8737	153.1655
747.0241	144.4157
747.1745	138.2087
747.3249	137.9995
747.4753	140.7415
747.6257	143.1508
747.776	136.8457
747.9264	149.648
748.0767	140.893
748.2271	143.7595
748.3774	141.7744
748.5276	138.2436
748.678	141.6856
748.8282	146.0454
748.9786	144.9259
749.1288	139.5939
749.2791	137.7412
749.4294	134.6282
749.5796	129.45
749.7299	134.407
749.8801	139.635
750.0303	140.8994
750.1805	142.385
750.3307	139.4744
750.4809	139.6053
750.6311	137.062
750.7813	137.0475
750.9314	138.7371
751.0816	137.344
751.2318	134.9078
751.3818	136.3451
751.532	134.7095
751.6821	147.525
751.8322	138.0038
751.9823	136.0916
752.1324	133.4757
752.2825	129.5322
752.4326	129.1275
752.5826	129.1966
752.7327	127.7151
752.8827	136.0047
753.0327	137.5758
753.1827	130.398
753.3328	129.1465
753.4828	132.0849
753.6328	136.3766
753.7828	135.5957
753.9327	138.6936
754.0827	138.3665
754.2327	138.5464
754.3826	137.3864
754.5325	132.1025
754.6825	134.1962
754.8324	129.0967
754.9823	130.9418
755.1322	129.6262
755.2821	125.5705
755.432	127.1415
755.5818	123.3451
755.7318	124.5403
755.8816	126.9453
756.0314	124.3687
756.1813	128.5801
756.3311	129.9934
756.4809	132.1029
756.6307	127.3247
756.7805	126.4133
756.9303	126.5993
757.0801	124.109
757.2299	125.2927
757.3796	125.5279
757.5294	119.7217
757.6791	123.5334
757.8289	127.2646
757.9786	123.8939
758.1283	124.4863
758.278	124.4206
758.4277	121.5663
758.5773	120.8736
758.7271	116.9544
758.8767	116.3762
759.0264	116.304
759.176	118.6862
759.3256	110.7742
759.4753	99.38291
759.6249	87.20155
759.7745	73.46626
759.9241	68.39402
760.0737	63.34983
760.2233	57.84762
760.3729	54.80746
760.5224	55.94285
760.6719	58.85799
760.8215	56.52584
760.971	61.08534
761.1205	60.66832
761.2701	62.92755
761.4196	69.97756
761.5691	83.83317
761.7186	91.64577
761.868	91.18117
762.0175	90.6489
762.167	85.14981
762.3164	85.17971
762.4659	74.99939
762.6153	68.61267
762.7647	72.99982
762.9141	76.71093
763.0635	74.82307
763.2129	75.39802
763.3623	76.09027
763.5117	76.8263
763.661	74.61218
763.8104	77.86415
763.9597	76.8837
764.1091	81.20679
764.2584	84.13847
764.4077	82.38542
764.557	82.87991
764.7063	78.67797
764.8556	80.88666
765.0049	87.03498
765.1541	88.08652
765.3034	88.01238
765.4526	88.9075
765.6019	88.48815
765.7511	91.2312
765.9003	93.6215
766.0496	91.37227
766.1987	96.50146
766.348	98.09345
766.4971	91.14112
766.6463	98.68311
766.7955	99.66047
766.9446	99.05328
767.0938	95.44159
767.2429	101.7616
767.392	104.0829
767.5411	102.4499
767.6902	104.2221
767.8394	104.9283
767.9884	104.8735
768.1375	102.6177
768.2866	100.5759
768.4356	109.8155
768.5847	105.8078
768.7337	100.8251
768.8828	110.4955
769.0317	103.3711
769.1808	101.1983
769.3298	101.0983
769.4788	106.2532
769.6277	103.8227
769.7767	101.4775
769.9257	100.7072
770.0746	101.4129
770.2236	101.4743
770.3725	109.0335
770.5214	106.3039
770.6703	111.8528
770.8193	105.4959
770.9681	102.9275
771.1171	104.853
771.2659	104.7166
771.4148	101.1656
771.5637	103.2993
771.7125	100.1719
771.8613	100.4525
772.0101	99.96634
772.159	100.0143
772.3078	105.9546
772.4566	103.1551
772.6054	103.1478
772.7542	98.10947
772.903	101.6913
773.0517	100.3722
773.2004	97.8413
773.3492	97.58538
773.4979	99.45358
773.6467	101.5704
773.7953	104.4829
773.944	102.6028
774.0928	100.9245
774.2415	101.5331
774.3901	105.2241
774.5388	106.3358
774.6874	96.39493
774.8361	93.77897
774.9847	99.23531
775.1334	96.19518
775.282	92.96265
775.4305	102.4322
775.5792	102.4047
775.7277	106.633
775.8763	109.87
776.0249	98.69012
776.1735	96.61707
776.322	98.57151
776.4705	98.76204
776.6191	98.94538
776.7676	94.41232
776.9161	99.55728
777.0646	104.546
777.2131	99.89381
777.3616	97.47395
777.5101	100.1936
777.6585	100.309
777.8069	92.33331
777.9554	94.70473
778.1038	95.69626
778.2523	96.48353
778.4007	101.5673
778.5491	93.6543
778.6974	94.79424
778.8459	94.47884
778.9942	93.70757
779.1426	93.41001
779.291	91.40174
779.4393	97.13811
779.5876	96.65096
779.736	94.13757
779.8843	94.76727
780.0326	86.90541
780.1809	91.78316
780.3292	96.78265
780.4775	91.1843
780.6257	97.42696
780.774	95.83323
780.9222	92.94923
781.0704	92.37659
781.2187	91.4468
781.3669	90.7128
781.5151	94.11958
781.6633	94.4538
781.8115	87.39846
781.9597	92.65182
782.1078	91.93281
782.256	95.24863
782.4042	95.78352
782.5523	91.44197
782.7004	93.55335
782.8486	89.78534
782.9967	90.4231
783.1448	87.00018
783.2929	87.84608
783.441	88.19372
783.5891	89.67696
783.7371	87.29472
783.8851	88.32333
784.0332	89.80965
784.1812	88.10945
784.3293	90.52523
784.4773	86.56512
784.6253	85.37101
784.7733	86.57393
784.9213	90.73689
785.0692	86.6563
785.2172	91.00008
785.3652	84.07916
785.5131	88.34324
785.6611	92.85783
785.809	90.00814
785.9569	92.12237
786.1048	92.36967
786.2527	88.28092
786.4006	86.79856
786.5485	86.19583
786.6964	84.81634
786.8442	82.63868
786.9921	83.09076
787.1399	83.03001
787.2877	85.27809
787.4355	82.19306
787.5833	84.57011
787.7311	90.02744
787.8789	87.43851
788.0267	82.49051
788.1745	85.16474
788.3223	85.53796
788.47	85.21992
788.6177	83.9644
788.7654	85.1832
788.9132	86.89345
789.0609	86.65687
789.2086	82.89922
789.3563	83.8886
789.504	84.28748
789.6517	87.04321
789.7993	82.48099
789.947	78.2266
790.0946	81.56471
790.2422	83.80841
790.3898	80.26801
790.5375	86.7735
790.6851	86.33825
790.8326	87.89594
790.9802	81.16962
791.1278	80.38067
791.2754	82.98698
791.423	82.90198
791.5705	74.04773
791.718	77.74923
791.8655	79.7186
792.0131	76.4241
792.1606	83.68651
792.308	81.80783
792.4556	78.40646
792.603	82.9609
792.7505	79.83492
792.8979	75.87878
793.0454	75.35468
793.1928	75.63675
793.3403	77.67452
793.4877	80.09606
793.6351	78.69101
793.7825	83.38084
793.9299	74.68058
794.0772	81.19088
794.2246	81.71196
794.3719	82.64443
794.5193	77.51172
794.6666	76.03875
794.814	76.17575
794.9613	79.57232
795.1086	76.99273
795.2559	77.46788
795.4032	81.2914
795.5505	84.80778
795.6978	81.39346
795.845	74.73091
795.9922	75.20242
796.1395	76.13617
796.2867	78.04568
796.4339	79.22627
796.5811	76.51826
796.7283	79.9844
796.8755	78.7291
797.0227	79.33827
797.1699	82.62888
797.317	77.44589
797.4642	77.95418
797.6113	70.65147
797.7584	74.55959
797.9056	72.38484
798.0527	80.96822
798.1998	74.82378
798.3469	74.62648
798.494	72.8455
798.641	75.62571
798.7881	74.55844
798.9351	69.12888
799.0822	74.55315
799.2292	82.0242
799.3762	78.93577
799.5232	78.96662
799.6702	74.59142
799.8172	73.89365
799.9642	71.47423
800.1111	77.22903
800.2581	74.37861
800.4051	76.4379
800.552	78.02475
800.6989	70.83801
800.8458	77.9508
800.9927	78.71155
801.1396	73.13435
801.2866	73.0099
801.4334	71.82127
801.5803	74.01804
801.7272	74.98008
801.874	71.71522
802.0209	69.45755
802.1677	70.97616
802.3145	68.93822
802.4613	70.16569
802.6081	73.58645
802.7549	72.93221
802.9017	71.5559
803.0485	72.56204
803.1952	71.05618
803.342	70.55663
803.4887	72.01015
803.6354	71.67783
803.7822	71.90801
803.9289	67.65441
804.0756	71.84985
804.2223	69.07614
804.369	65.18583
804.5156	65.86169
804.6623	69.83488
804.8089	69.53742
804.9556	73.15416
805.1022	72.2841
805.2488	69.57848
805.3954	69.98418
805.542	67.30717
805.6886	71.15057
805.8352	67.73841
805.9818	64.99316
806.1283	69.81929
806.2749	73.80658
806.4214	72.82152
806.5679	68.19844
806.7145	65.39725
806.861	66.06936
807.0074	69.13152
807.154	67.83735
807.3004	67.72293
807.4469	66.85286
807.5934	64.19262
807.7398	66.22633
807.8862	68.33229
808.0327	62.73217
808.1791	63.51247
808.3255	68.80327
808.4719	68.67123
808.6183	62.02576
808.7647	68.28651
808.9111	65.48859
809.0574	65.27502
809.2037	66.17159
809.3501	64.38216
809.4965	63.78574
809.6428	63.23317
809.7891	70.08666
809.9354	68.93288
810.0817	62.4136
810.2279	62.16069
810.3742	66.66978
810.5204	65.75734
810.6667	62.18456
810.8129	63.39479
810.9592	58.98928
811.1054	58.71846
811.2516	65.83141
811.3978	67.55135
811.5439	60.87552
811.6901	61.85863
811.8363	59.06137
811.9825	56.59032
812.1286	59.60985
812.2748	57.85662
812.4209	58.84921
812.567	62.34042
812.7131	63.47202
812.8592	64.70895
813.0053	62.05705
813.1514	61.59937
813.2974	54.77864
813.4435	55.32513
813.5895	54.62298
813.7356	54.61909
813.8816	56.52553
814.0276	53.63981
814.1736	53.49998
814.3196	54.24412
814.4656	47.96082
814.6116	54.4636
814.7576	53.35099
814.9035	57.17467
815.0494	54.49615
815.1954	52.29858
815.3413	51.16397
815.4872	54.39442
815.6331	52.0583
815.779	54.29173
815.9249	55.937
816.0707	56.44066
816.2166	51.34222
816.3625	46.13758
816.5083	51.38499
816.6542	52.71029
816.8	55.28518
816.9458	51.21109
817.0916	54.94529
817.2374	54.00529
817.3832	56.31446
817.5289	55.50965
817.6747	54.13207
817.8204	51.70625
817.9662	52.02325
818.1119	51.33592
818.2576	47.69228
818.4034	52.56659
818.5491	50.80695
818.6948	53.09325
818.8405	47.34893
818.9861	49.93638
819.1318	52.21079
819.2774	52.1988
819.423	58.16357
819.5687	56.77787
819.7143	49.13022
819.8599	46.32865
820.0055	48.89461
820.1511	53.58022
820.2967	57.55043
820.4422	58.18532
820.5878	55.23452
820.7333	51.87147
820.8788	49.61362
821.0244	56.3863
821.1699	57.38229
821.3154	56.69762
821.4609	55.33562
821.6064	53.43113
821.7519	53.1965
821.8973	53.39416
822.0428	50.97486
822.1882	48.30202
822.3337	50.67869
822.4791	51.87061
822.6245	49.27887
822.7699	46.87341
822.9153	41.76145
823.0607	42.45296
823.2061	41.47263
823.3514	42.31671
823.4968	48.48426
823.6422	56.95943
823.7875	52.09621
823.9328	46.81252
824.0781	49.42729
824.2234	48.80338
824.3687	51.83556
824.514	52.18063
824.6592	50.86806
824.8045	51.99594
824.9498	52.66613
825.095	47.79734
825.2402	56.04683
825.3854	49.80719
825.5306	52.09581
825.6758	51.48731
825.821	50.38157
825.9662	44.31189
826.1114	46.4961
826.2565	49.97717
826.4017	51.37479
826.5468	48.33126
826.692	51.37367
826.837	50.97031
826.9822	49.79421
827.1273	51.37231
827.2723	44.61536
827.4174	43.57048
827.5625	49.17707
827.7075	44.06778
827.8526	45.30118
827.9976	44.84743
828.1426	46.86906
828.2877	46.83015
828.4327	47.6336
828.5776	45.87319
828.7227	41.99272
828.8676	43.94453
829.0126	43.68914
829.1575	46.22675
829.3024	48.87951
829.4474	42.42729
829.5923	49.41232
829.7372	49.021
829.8821	48.89334
830.027	45.48247
830.1719	46.38457
830.3168	44.94476
830.4616	47.27099
830.6064	44.81523
830.7513	43.88934
830.8961	51.13764
831.041	46.01803
831.1857	47.34565
831.3306	45.10276
831.4753	43.84954
831.6201	44.11781
831.7649	40.70367
831.9096	44.85218
832.0544	47.22759
832.1991	43.26897
832.3438	42.16741
832.4885	48.11476
832.6332	45.17643
832.778	43.37276
832.9226	44.86283
833.0673	46.40002
833.2119	45.05602
833.3566	47.49572
833.5012	45.96219
833.6459	46.48986
833.7905	42.86312
833.9351	43.95472
834.0797	47.88377
834.2243	47.02172
834.3688	45.33949
834.5134	46.65685
834.658	43.61964
834.8026	42.86015
834.9471	39.95451
835.0916	43.96342
835.2361	46.99939
835.3806	44.46233
835.5251	51.09766
835.6696	48.21642
835.8141	43.2902
835.9586	46.13089
836.103	47.71275
836.2474	44.08329
836.3918	44.75558
836.5363	42.04551
836.6807	46.79446
836.8251	49.17489
836.9695	50.12496
837.1138	45.59844
837.2582	42.09597
837.4026	43.6422
837.5469	47.18325
837.6913	46.95062
837.8356	50.86747
837.9799	46.95202
838.1242	43.69968
838.2686	46.7518
838.4128	41.43373
838.5571	40.96519
838.7014	44.83039
838.8456	44.36955
838.9899	47.86907
839.1341	47.49556
839.2783	44.1308
839.4225	44.44615
839.5667	43.36454
839.7109	45.02451
839.8551	42.71845
839.9993	40.08646
840.1434	41.29139
840.2876	47.50262
840.4317	45.97924
840.5759	45.23065
840.72	44.50044
840.8641	41.87975
841.0082	45.86809
841.1523	43.63144
841.2963	42.41904
841.4404	43.78441
841.5845	41.35196
841.7285	42.91891
841.8726	46.22114
842.0165	42.68523
842.1606	42.18908
842.3046	47.61126
842.4485	44.78104
842.5925	44.74612
842.7365	40.57367
842.8805	49.8689
843.0244	39.4388
843.1684	42.16084
843.3123	47.91633
843.4562	42.45177
843.6002	36.92132
843.744	42.61403
843.8879	38.80672
844.0318	37.26645
844.1757	43.72768
844.3195	43.54419
844.4634	39.6358
844.6072	41.5911
844.751	43.30353
844.8948	47.46205
845.0386	42.82618
845.1824	46.06532
845.3262	43.03132
845.47	40.90101
845.6138	42.64073
845.7575	46.04998
845.9012	42.88993
846.045	42.06887
846.1887	40.94706
846.3324	44.28696
846.4761	41.48084
846.6198	45.62551
846.7635	43.01192
846.9071	37.31674
847.0508	36.79819
847.1944	39.66947
847.3381	34.36566
847.4817	43.28115
847.6253	38.89773
847.7689	41.19995
847.9125	43.34144
848.0561	41.30337
848.1996	42.36069
848.3432	39.56511
848.4868	40.27547
848.6303	39.12829
848.7738	40.77649
848.9174	39.33919
849.0609	46.99678
849.2043	41.43167
849.3478	46.88255
849.4913	41.33271
849.6348	38.06517
849.7782	37.51791
849.9217	38.73431
850.0651	39.77364
850.2086	36.71894
850.3519	35.37393
850.4954	40.8368
850.6387	39.28097
850.7821	41.86879
850.9255	38.91272
851.0688	36.93261
851.2122	42.92712
851.3555	41.04023
851.4988	38.9067
851.6422	38.40932
851.7855	40.07474
851.9288	37.0406
852.0721	38.84061
852.2153	44.64187
852.3586	37.65842
852.5018	33.89219
852.6451	35.44564
852.7883	36.64795
852.9315	37.12593
853.0748	41.262
853.218	37.54899
853.3611	34.14496
853.5043	37.14384
853.6475	33.08767
853.7906	36.56392
853.9338	34.61599
854.0769	33.33617
854.22	32.31137
854.3632	32.66094
854.5063	33.79211
854.6494	35.74971
854.7924	37.69678
854.9355	34.93558
855.0786	37.08051
855.2216	36.79136
855.3647	36.81705
855.5077	35.43983
855.6507	38.3182
855.7937	36.46902
855.9367	34.43018
856.0797	34.55727
856.2227	37.09388
856.3657	39.16198
856.5086	37.43364
856.6516	32.02613
856.7945	39.97607
856.9374	42.00713
857.0803	35.96972
857.2232	35.84358
857.3661	38.31334
857.509	39.57715
857.6519	33.98072
857.7947	38.33059
857.9376	38.43338
858.0804	38.63959
858.2232	37.90253
858.366	35.20345
858.5089	34.15048
858.6516	37.86993
858.7944	38.38266
858.9372	34.40982
859.08	38.3213
859.2227	37.60829
859.3654	37.08065
859.5082	39.28051
859.6509	35.97591
859.7936	35.04162
859.9363	37.32053
860.079	34.153
860.2217	37.16322
860.3643	34.50862
860.507	32.07311
860.6496	35.59964
860.7922	37.48911
860.9349	35.84041
861.0775	36.75684
861.2201	30.34143
861.3627	34.93139
861.5052	33.65559
861.6478	31.96718
861.7904	36.86977
861.9329	40.04836
862.0755	39.40592
862.218	36.63817
862.3605	30.0735
862.503	33.90479
862.6455	35.58424
862.788	30.99316
862.9305	38.44209
863.0729	38.63586
863.2154	39.00551
863.3578	37.37792
863.5002	36.5666
863.6426	34.58412
863.7851	31.67422
863.9275	34.50264
864.0698	32.72768
864.2122	31.32574
864.3546	35.79354
864.4969	30.10084
864.6393	28.53129
864.7816	31.48296
864.924	31.92469
865.0662	33.54419
865.2086	31.66344
865.3508	31.70553
865.4931	29.19348
865.6354	30.70208
865.7776	28.18863
865.9199	29.066
866.0621	22.12741
866.2043	28.11282
866.3466	31.15411
866.4888	27.55088
866.6309	30.27708
866.7731	30.96061
866.9153	34.91595
867.0574	33.57407
867.1996	32.82894
867.3417	31.16729
867.4839	27.64373
867.626	34.70441
867.7681	33.4938
867.9102	35.84167
868.0522	33.61685
868.1943	31.71184
868.3364	33.20472
868.4785	32.50932
868.6205	31.95508
868.7625	32.24022
868.9045	29.47002
869.0465	29.83776
869.1885	29.89249
869.3305	28.74549
869.4725	33.91913
869.6144	38.04661
869.7564	32.86593
869.8983	34.63458
870.0403	33.98473
870.1822	33.61692
870.3241	28.98495
870.466	26.88131
870.6079	30.90992
870.7498	28.58191
870.8916	28.95143
871.0335	29.94393
871.1754	27.88442
871.3171	32.29739
871.459	35.82703
871.6008	34.15429
871.7426	29.79967
871.8844	34.72782
872.0262	32.40744
872.1679	30.27121
872.3097	27.52089
872.4514	32.42965
872.5931	28.83908
872.7349	29.88844
872.8766	24.54791
873.0183	29.70973
873.16	33.55446
873.3017	29.28637
873.4434	31.40691
873.585	35.43308
873.7266	29.0055
873.8683	29.85554
874.0099	34.35417
874.1516	32.18924
874.2932	33.65359
874.4348	30.20557
874.5763	32.83431
874.7179	30.19628
874.8594	29.95647
875.001	25.90945
875.1425	30.17934
875.2841	28.0698
875.4256	27.22846
875.5671	25.19374
875.7086	28.87596
875.85	29.55233
875.9915	27.10642
876.133	28.59457
876.2744	30.17565
876.4159	26.86072
876.5573	28.63956
876.6987	33.02024
876.8401	29.28176
876.9815	27.22472
877.1229	32.22527
877.2643	30.29143
877.4056	29.26156
877.547	27.3106
877.6884	27.52431
877.8297	28.60619
877.971	26.11985
878.1123	28.19242
878.2536	25.72627
878.3949	29.13567
878.5362	26.64153
878.6774	28.36919
878.8187	27.64827
878.9599	24.16707
879.1011	27.87164
879.2424	23.21506
879.3836	26.57436
879.5248	33.19929
879.666	27.97605
879.8071	23.71327
879.9483	24.04112
880.0895	28.21684
880.2306	28.29696
880.3718	28.72952
880.5129	27.85393
880.654	24.79137
880.7951	25.57775
880.9362	25.20523
881.0773	28.19477
881.2183	28.23148
881.3594	25.38667
881.5004	29.86825
881.6414	27.19947
881.7825	30.27167
881.9235	27.89782
882.0645	28.30209
882.2054	28.26236
882.3464	25.27971
882.4874	27.62131
882.6284	27.13976
882.7693	24.38266
882.9103	24.86112
883.0512	23.98049
883.1921	28.84809
883.333	26.45813
883.4739	26.72643
883.6147	27.89673
883.7556	24.27113
883.8965	20.54287
884.0374	25.43304
884.1782	28.35764
884.319	25.98045
884.4598	22.05978
884.6006	17.88686
884.7414	26.54168
884.8822	30.36063
885.0229	29.5195
885.1637	29.75616
885.3044	25.91686
885.4452	20.16776
885.5859	26.75471
885.7266	23.08316
885.8673	28.97786
886.008	24.24183
886.1487	23.15258
886.2894	27.22102
886.43	24.42535
886.5707	25.72565
886.7113	27.70292
886.8519	26.44541
886.9926	24.85118
887.1331	22.72397
887.2737	28.50576
887.4143	26.0747
887.5549	28.39528
887.6954	25.94802
887.836	24.85668
887.9765	24.23906
888.1171	23.85755
888.2576	23.90168
888.3981	23.64614
888.5386	23.39454
888.679	24.48609
888.8195	28.69961
888.96	22.65836
889.1004	17.62616
889.2408	24.75693
889.3813	23.76994
889.5217	25.91212
889.6621	24.29205
889.8025	24.97207
889.9429	26.54944
890.0833	23.27829
890.2236	22.60732
890.364	25.26499
890.5043	23.6025
890.6446	25.00312
890.7849	25.36408
890.9252	30.58649
891.0655	24.79852
891.2058	21.90397
891.3461	24.63186
891.4863	27.66226
891.6266	21.28937
891.7668	23.23847
891.907	25.2224
892.0472	25.81379
892.1874	28.65746
892.3276	25.95622
892.4678	25.58479
892.608	26.29062
892.7481	21.53769
892.8883	16.77898
893.0284	19.3302
893.1685	20.94256
893.3087	19.1137
893.4487	24.20095
893.5889	20.51618
893.7289	25.85961
893.869	24.16806
894.009	24.27236
894.1491	24.57119
894.2891	23.00462
894.4291	22.94311
894.5692	24.17345
894.7092	26.54328
894.8491	20.04992
894.9891	21.88274
895.1291	21.13565
895.269	19.64123
895.409	23.07113
895.549	22.35325
895.6888	21.32032
895.8288	19.2439
895.9687	18.76777
896.1086	22.60709
896.2484	22.16982
896.3883	19.23489
896.5281	21.65555
896.668	19.71996
896.8079	16.79408
896.9476	23.96034
897.0875	19.72458
897.2272	18.25295
897.3671	19.35682
897.5068	17.21763
897.6466	19.44097
897.7864	23.71888
897.9261	17.73815
898.0658	19.14026
898.2056	21.56939
898.3453	22.56466
898.4849	21.14667
898.6246	17.98999
898.7643	18.35679
898.904	21.29523
899.0436	17.69258
899.1833	13.54534
899.3229	19.5509
899.4625	20.27775
899.6021	20.21863
899.7417	23.33971
899.8813	22.72653
900.0209	27.30217
900.1605	22.23802
900.3	21.51486
900.4395	17.90544
900.579	17.38072
900.7186	16.15139
900.8581	20.75127
900.9976	19.53278
901.1371	13.21852
901.2766	17.10102
901.416	20.32748
901.5555	19.49611
901.6949	17.49005
901.8344	23.87196
901.9738	20.23062
902.1132	19.60769
902.2526	21.88658
902.3919	19.10519
902.5313	16.12566
902.6707	18.9481
